# d(e,e'p)n Central Kinematics Summary
# Beam Energy (Ei) = 11.000 GeV
# 4-Momentum Transfer (Q2) = 2.50 - 2.59 GeV (step: 0.01) 
# x-Bjorken (xbj) = 1.00 - 2.05 (step: 0.05) 
# Missing Momentum (Pr) = 0.35 - 0.41 GeV (step: 0.01) 
# Hadron Out-of-Plane Angle (phi): rotation axis is q-vector 
# thp = thq + thpq, phi = 180  (q-vector scatters at smaller  angles than proton scattering angle)# 
# # 
# Tensor Polarized Deuterium: d(e,e'p) kinematics :
# 
# Header Definitions: 
# Pr   : Central Missing Momentum [GeV/c] 
# xbj  : Bjorken x  
# kf   : e- final momentum [GeV/c] 
# th_e : e- scattering angle [deg] 
# Pf   : final proton momentum [GeV/c] 
# th_p : proton scattering angle [deg] 
# q    : 3-momentum transfer [GeV] 
# th_q : relative angle between q-vector and +z (lab)  [deg] 
# th_nq: relative angle between q-vector and recoil neutron [deg] 
# th_pq: relative angle between q-vector and knocked-out proton [deg] 
# Q2   : 4-Momentum Transfer [GeV^2]  
# 
#! Pr[f,0]/ 	  xbj[f,1]/ 	 kf[f,2]/ 	 th_e[f,3]/ 	 Pf[f,4]/ 	 th_p[f,5]/ 	 q[f,6]/ 	 th_q[f,7]/ 	 th_nq[f,8]/ 	 th_pq[f,9]/ 	 Q2[f,10]/  cuts: em<=0.03, |hdel|<10, thrq<=40
  0.3500 	 1.5500 	 10.1405 	 8.5856 	 1.4564 	 59.6888 	 1.7997 	 57.2660 	 10.1312 	 2.4227 	 2.5000 <-- Pm yield: 82, hdelta ~ -3%, thrq ~45
  0.3500 	 1.5000 	 10.1047 	 8.6353 	 1.4988 	 60.9661 	 1.8225 	 56.3527 	 20.1470 	 4.6135 	 2.5200
  0.3500 	 1.5000 	 10.1012 	 8.6539 	 1.5030 	 60.8716 	 1.8270 	 56.2953 	 20.0363 	 4.5763 	 2.5300 
  0.3500 	 1.5000 	 10.0976 	 8.6726 	 1.5071 	 60.7774 	 1.8315 	 56.2382 	 19.9252 	 4.5392 	 2.5400
  0.3500 	 1.5000 	 10.0941 	 8.6912 	 1.5113 	 60.6834 	 1.8359 	 56.1811 	 19.8137 	 4.5023 	 2.5500 <-- Pm yield: 44,  hdelta ~ -7%,  thrq ~50
  0.3500 	 1.5000 	 10.0905 	 8.7098 	 1.5155 	 60.5897 	 1.8404 	 56.1243 	 19.7018 	 4.4654 	 2.5600
  0.3500 	 1.5000 	 10.0870 	 8.7284 	 1.5197 	 60.4963 	 1.8449 	 56.0676 	 19.5894 	 4.4287 	 2.5700
  0.3500 	 1.4500 	 10.0518 	 8.7607 	 1.5609 	 60.9695 	 1.8652 	 55.1645 	 26.8118 	 5.8051 	 2.5800
  0.3500 	 1.5000 	 10.0834 	 8.7469 	 1.5239 	 60.4031 	 1.8494 	 56.0110 	 19.4767 	 4.3921 	 2.5800
  0.3500 	 1.4500 	 10.0481 	 8.7793 	 1.5651 	 60.8819 	 1.8698 	 55.1072 	 26.7396 	 5.7746 	 2.5900
  0.3500 	 1.5000 	 10.0799 	 8.7654 	 1.5280 	 60.3102 	 1.8538 	 55.9546 	 19.3635 	 4.3555 	 2.5900
  0.3500 	 1.4000 	 10.0103 	 8.8129 	 1.6091 	 60.9294 	 1.8919 	 54.1574 	 32.8269 	 6.7719 	 2.6000
  0.3500 	 1.4500 	 10.0445 	 8.7978 	 1.5694 	 60.7945 	 1.8743 	 55.0502 	 26.6674 	 5.7444 	 2.6000
  0.3500 	 1.5000 	 10.0763 	 8.7839 	 1.5322 	 60.2175 	 1.8583 	 55.8984 	 19.2499 	 4.3191 	 2.6000
  0.3600 	 1.5500 	 10.1405 	 8.5856 	 1.4522 	 60.6064 	 1.7997 	 57.2660 	 13.5944 	 3.3404 	 2.5000
  0.3600 	 1.5500 	 10.1371 	 8.6043 	 1.4563 	 60.4979 	 1.8041 	 57.2092 	 13.4188 	 3.2887 	 2.5100
  0.3600 	 1.5500 	 10.1336 	 8.6229 	 1.4604 	 60.3894 	 1.8085 	 57.1526 	 13.2412 	 3.2368 	 2.5200
  0.3600 	 1.5500 	 10.1302 	 8.6415 	 1.4645 	 60.2809 	 1.8129 	 57.0961 	 13.0616 	 3.1847 	 2.5300
  0.3600 	 1.5500 	 10.1267 	 8.6601 	 1.4686 	 60.1722 	 1.8173 	 57.0398 	 12.8798 	 3.1324 	 2.5400
  0.3600 	 1.5500 	 10.1233 	 8.6786 	 1.4726 	 60.0634 	 1.8217 	 56.9836 	 12.6958 	 3.0798 	 2.5500
  0.3600 	 1.5500 	 10.1199 	 8.6971 	 1.4767 	 59.9545 	 1.8261 	 56.9276 	 12.5094 	 3.0268 	 2.5600
  0.3600 	 1.5500 	 10.1164 	 8.7156 	 1.4808 	 59.8454 	 1.8305 	 56.8717 	 12.3206 	 2.9736 	 2.5700
  0.3600 	 1.5000 	 10.0834 	 8.7469 	 1.5197 	 60.9572 	 1.8494 	 56.0110 	 21.3440 	 4.9461 	 2.5800
  0.3600 	 1.5500 	 10.1130 	 8.7341 	 1.4848 	 59.7361 	 1.8349 	 56.8160 	 12.1292 	 2.9201 	 2.5800
  0.3600 	 1.5000 	 10.0799 	 8.7654 	 1.5239 	 60.8655 	 1.8538 	 55.9546 	 21.2459 	 4.9109 	 2.5900
  0.3600 	 1.5500 	 10.1096 	 8.7525 	 1.4889 	 59.6266 	 1.8393 	 56.7604 	 11.9351 	 2.8661 	 2.5900
  0.3600 	 1.5000 	 10.0763 	 8.7839 	 1.5281 	 60.7742 	 1.8583 	 55.8984 	 21.1475 	 4.8758 	 2.6000
  0.3600 	 1.5500 	 10.1061 	 8.7709 	 1.4930 	 59.5168 	 1.8436 	 56.7050 	 11.7383 	 2.8118 	 2.6000
  0.3700 	 1.5500 	 10.1267 	 8.6601 	 1.4643 	 60.9293 	 1.8173 	 57.0398 	 15.5715 	 3.8895 	 2.5400
  0.3700 	 1.5500 	 10.1233 	 8.6786 	 1.4683 	 60.8271 	 1.8217 	 56.9836 	 15.4269 	 3.8434 	 2.5500
  0.3700 	 1.5500 	 10.1199 	 8.6971 	 1.4724 	 60.7250 	 1.8261 	 56.9276 	 15.2811 	 3.7974 	 2.5600
  0.3700 	 1.5500 	 10.1164 	 8.7156 	 1.4765 	 60.6230 	 1.8305 	 56.8717 	 15.1343 	 3.7513 	 2.5700
  0.3700 	 1.5500 	 10.1130 	 8.7341 	 1.4806 	 60.5212 	 1.8349 	 56.8160 	 14.9863 	 3.7052 	 2.5800
  0.3700 	 1.5500 	 10.1096 	 8.7525 	 1.4846 	 60.4195 	 1.8393 	 56.7604 	 14.8371 	 3.6590 	 2.5900
  0.3700 	 1.5500 	 10.1061 	 8.7709 	 1.4887 	 60.3178 	 1.8436 	 56.7050 	 14.6867 	 3.6128 	 2.6000
  0.3800 	 1.5500 	 10.1061 	 8.7709 	 1.4843 	 60.9871 	 1.8436 	 56.7050 	 16.9569 	 4.2820 	 2.6000
  0.3900 	 1.6000 	 10.1607 	 8.6114 	 1.4148 	 60.9254 	 1.7957 	 57.9137 	 10.9876 	 3.0117 	 2.5200
  0.3900 	 1.6000 	 10.1574 	 8.6299 	 1.4188 	 60.8052 	 1.8000 	 57.8581 	 10.7801 	 2.9471 	 2.5300
  0.3900 	 1.6000 	 10.1540 	 8.6484 	 1.4228 	 60.6845 	 1.8043 	 57.8026 	 10.5688 	 2.8819 	 2.5400
  0.3900 	 1.6000 	 10.1507 	 8.6669 	 1.4267 	 60.5632 	 1.8087 	 57.7472 	 10.3536 	 2.8159 	 2.5500
  0.3900 	 1.6000 	 10.1474 	 8.6853 	 1.4307 	 60.4412 	 1.8130 	 57.6921 	 10.1342 	 2.7491 	 2.5600
  0.4000 	 1.6000 	 10.1374 	 8.7405 	 1.4380 	 60.9783 	 1.8260 	 57.5274 	 12.4979 	 3.4510 	 2.5900
  0.4000 	 1.6000 	 10.1340 	 8.7588 	 1.4420 	 60.8676 	 1.8303 	 57.4728 	 12.3264 	 3.3949 	 2.6000
