# d(e,e'p)n Central Kinematics Summary
# Beam Energy (Ei) = 6.600 GeV
# 4-Momentum Transfer (Q2) = 1.00 - 1.90 GeV (step: 0.10) 
# x-Bjorken (xbj) = 1.00 - 2.10 (step: 0.10) 
# Missing Momentum (Pr) = 0.20 - 0.36 GeV (step: 0.01) 
# Hadron Out-of-Plane Angle (phi): rotation axis is q-vector 
# thp = thq - thpq, phi = 180  (q-vector scatters at smaller  angles than proton scattering angle)# 
# # 
# Tensor Polarized Deuterium: d(e,e'p) kinematics :
# 
# Header Definitions: 
# Pr   : Central Missing Momentum [GeV/c] 
# xbj  : Bjorken x  
# kf   : e- final momentum [GeV/c] 
# th_e : e- scattering angle [deg] 
# Pf   : final proton momentum [GeV/c] 
# th_p : proton scattering angle [deg] 
# q    : 3-momentum transfer [GeV] 
# th_q : relative angle between q-vector and +z (lab)  [deg] 
# th_nq: relative angle between q-vector and recoil neutron [deg] 
# th_pq: relative angle between q-vector and knocked-out proton [deg] 
# Q2   : 4-Momentum Transfer [GeV^2]  
# 
  Pr,            xbj,            kf,             th_e,           Pf,             th_p,           q,              th_q,           th_nq,          th_pq,          Q2
  0.2000 	 1.4000 	 6.1813 	 9.4188 	 0.9478 	 68.2638 	 1.1293 	 63.6050 	 22.6391 	 4.6588 	 1.1000
  0.2000 	 1.4000 	 6.1432 	 9.8692 	 1.0007 	 66.3622 	 1.1869 	 62.5193 	 19.5927 	 3.8429 	 1.2000
  0.2000 	 1.4000 	 6.1052 	 10.3053 	 1.0523 	 64.5139 	 1.2429 	 61.4872 	 16.1292 	 3.0267 	 1.3000
  0.2000 	 1.3000 	 6.0261 	 10.7655 	 1.1560 	 64.5047 	 1.3150 	 58.8653 	 34.6109 	 5.6394 	 1.4000
  0.2000 	 1.4000 	 6.0671 	 10.7290 	 1.1027 	 62.6435 	 1.2977 	 60.5027 	 11.8862 	 2.1408 	 1.4000
  0.2000 	 1.3000 	 5.9851 	 11.1828 	 1.2084 	 63.1070 	 1.3704 	 57.8866 	 33.3481 	 5.2203 	 1.5000
  0.2000 	 1.4000 	 6.0290 	 11.1418 	 1.1523 	 60.4636 	 1.3513 	 59.5609 	 5.2076 	 0.9027 	 1.5000
  0.2000 	 1.3000 	 5.9441 	 11.5906 	 1.2599 	 61.7859 	 1.4248 	 56.9492 	 32.0823 	 4.8367 	 1.6000
  0.2000 	 1.3000 	 5.9031 	 11.9902 	 1.3106 	 60.5323 	 1.4784 	 56.0491 	 30.8123 	 4.4831 	 1.7000
  0.2000 	 1.3000 	 5.8621 	 12.3824 	 1.3607 	 59.3384 	 1.5312 	 55.1832 	 29.5361 	 4.1552 	 1.8000
  0.2000 	 1.3000 	 5.8212 	 12.7680 	 1.4102 	 58.1977 	 1.5832 	 54.3486 	 28.2510 	 3.8491 	 1.9000
  0.2100 	 1.5000 	 6.2447 	 8.9337 	 0.8531 	 67.7236 	 1.0612 	 66.0367 	 6.8685 	 1.6869 	 1.0000
  0.2100 	 1.4000 	 6.1813 	 9.4188 	 0.9448 	 69.1747 	 1.1293 	 63.6050 	 25.8918 	 5.5696 	 1.1000
  0.2100 	 1.4000 	 6.1432 	 9.8692 	 0.9978 	 67.3300 	 1.1869 	 62.5193 	 23.4819 	 4.8107 	 1.2000
  0.2100 	 1.4000 	 6.1052 	 10.3053 	 1.0494 	 65.5795 	 1.2429 	 61.4872 	 20.8923 	 4.0923 	 1.3000
  0.2100 	 1.4000 	 6.0671 	 10.7290 	 1.0999 	 63.8936 	 1.2977 	 60.5027 	 18.0474 	 3.3909 	 1.4000
  0.2100 	 1.4000 	 6.0290 	 11.1418 	 1.1495 	 62.2355 	 1.3513 	 59.5609 	 14.7989 	 2.6746 	 1.5000
  0.2100 	 1.3000 	 5.9441 	 11.5906 	 1.2572 	 62.3662 	 1.4248 	 56.9492 	 34.4142 	 5.4170 	 1.6000
  0.2100 	 1.4000 	 5.9910 	 11.5451 	 1.1982 	 60.5367 	 1.4039 	 58.6576 	 10.7831 	 1.8790 	 1.6000
  0.2100 	 1.3000 	 5.9031 	 11.9902 	 1.3080 	 61.1088 	 1.4784 	 56.0491 	 33.3201 	 5.0596 	 1.7000
  0.2100 	 1.4000 	 5.9529 	 11.9398 	 1.2462 	 58.4910 	 1.4556 	 57.7894 	 4.1676 	 0.7017 	 1.7000
  0.2100 	 1.3000 	 5.8621 	 12.3824 	 1.3581 	 59.9131 	 1.5312 	 55.1832 	 32.2272 	 4.7298 	 1.8000
  0.2100 	 1.3000 	 5.8212 	 12.7680 	 1.4077 	 58.7726 	 1.5832 	 54.3486 	 31.1347 	 4.4239 	 1.9000
  0.2200 	 1.5000 	 6.2447 	 8.9337 	 0.8498 	 69.7034 	 1.0612 	 66.0367 	 14.3016 	 3.6667 	 1.0000
  0.2200 	 1.4000 	 6.1813 	 9.4188 	 0.9417 	 69.9927 	 1.1293 	 63.6050 	 28.4386 	 6.3877 	 1.1000
  0.2200 	 1.5000 	 6.2092 	 9.3976 	 0.9019 	 66.8644 	 1.1192 	 64.9374 	 7.9233 	 1.9270 	 1.1000
  0.2200 	 1.4000 	 6.1432 	 9.8692 	 0.9947 	 68.1704 	 1.1869 	 62.5193 	 26.4374 	 5.6511 	 1.2000
  0.2200 	 1.4000 	 6.1052 	 10.3053 	 1.0464 	 66.4580 	 1.2429 	 61.4872 	 24.3389 	 4.9708 	 1.3000
  0.2200 	 1.4000 	 6.0671 	 10.7290 	 1.0970 	 64.8334 	 1.2977 	 60.5027 	 22.1195 	 4.3307 	 1.4000
  0.2200 	 1.4000 	 6.0290 	 11.1418 	 1.1466 	 63.2764 	 1.3513 	 59.5609 	 19.7393 	 3.7154 	 1.5000
  0.2200 	 1.4000 	 5.9910 	 11.5451 	 1.1954 	 61.7651 	 1.4039 	 58.6576 	 17.1308 	 3.1075 	 1.6000
  0.2200 	 1.4000 	 5.9529 	 11.9398 	 1.2434 	 60.2709 	 1.4556 	 57.7894 	 14.1653 	 2.4816 	 1.7000
  0.2200 	 1.3000 	 5.8621 	 12.3824 	 1.3554 	 60.4490 	 1.5312 	 55.1832 	 34.4323 	 5.2658 	 1.8000
  0.2200 	 1.4000 	 5.9148 	 12.3269 	 1.2908 	 58.7398 	 1.5065 	 56.9530 	 10.5409 	 1.7867 	 1.8000
  0.2200 	 1.3000 	 5.8212 	 12.7680 	 1.4050 	 59.3044 	 1.5832 	 54.3486 	 33.4833 	 4.9558 	 1.9000
  0.2200 	 1.4000 	 5.8768 	 12.7071 	 1.3376 	 56.9626 	 1.5566 	 56.1461 	 4.9705 	 0.8165 	 1.9000
  0.2300 	 1.5000 	 6.2092 	 9.3976 	 0.8985 	 68.6266 	 1.1192 	 64.9374 	 14.5580 	 3.6892 	 1.1000
  0.2300 	 1.4000 	 6.1432 	 9.8692 	 0.9915 	 68.9338 	 1.1869 	 62.5193 	 28.7903 	 6.4144 	 1.2000
  0.2300 	 1.5000 	 6.1737 	 9.8447 	 0.9491 	 66.1120 	 1.1755 	 63.8953 	 9.1847 	 2.2167 	 1.2000
  0.2300 	 1.4000 	 6.1052 	 10.3053 	 1.0433 	 67.2360 	 1.2429 	 61.4872 	 27.0235 	 5.7488 	 1.3000
  0.2300 	 1.4000 	 6.0671 	 10.7290 	 1.0939 	 65.6364 	 1.2977 	 60.5027 	 25.1881 	 5.1337 	 1.4000
  0.2300 	 1.4000 	 6.0290 	 11.1418 	 1.1436 	 64.1182 	 1.3513 	 59.5609 	 23.2708 	 4.5573 	 1.5000
  0.2300 	 1.4000 	 5.9910 	 11.5451 	 1.1924 	 62.6664 	 1.4039 	 58.6576 	 21.2503 	 4.0087 	 1.6000
  0.2300 	 1.4000 	 5.9529 	 11.9398 	 1.2405 	 61.2664 	 1.4556 	 57.7894 	 19.0935 	 3.4770 	 1.7000
  0.2300 	 1.4000 	 5.9148 	 12.3269 	 1.2879 	 59.9025 	 1.5065 	 56.9530 	 16.7460 	 2.9494 	 1.8000
  0.2300 	 1.4000 	 5.8768 	 12.7071 	 1.3347 	 58.5537 	 1.5566 	 56.1461 	 14.1100 	 2.4076 	 1.9000
  0.2400 	 1.5000 	 6.2092 	 9.3976 	 0.8950 	 69.8318 	 1.1192 	 64.9374 	 18.5518 	 4.8943 	 1.1000
  0.2400 	 1.4000 	 6.1432 	 9.8692 	 0.9882 	 69.6449 	 1.1869 	 62.5193 	 30.7127 	 7.1256 	 1.2000
  0.2400 	 1.5000 	 6.1737 	 9.8447 	 0.9457 	 67.6657 	 1.1755 	 63.8953 	 15.0180 	 3.7704 	 1.2000
  0.2400 	 1.4000 	 6.1052 	 10.3053 	 1.0400 	 67.9499 	 1.2429 	 61.4872 	 29.1928 	 6.4627 	 1.3000
  0.2400 	 1.5000 	 6.1382 	 10.2775 	 0.9951 	 65.4222 	 1.2302 	 62.9035 	 10.4988 	 2.5187 	 1.3000
  0.2400 	 1.4000 	 6.0671 	 10.7290 	 1.0907 	 66.3592 	 1.2977 	 60.5027 	 27.6283 	 5.8565 	 1.4000
  0.2400 	 1.4000 	 6.0290 	 11.1418 	 1.1405 	 64.8569 	 1.3513 	 59.5609 	 26.0155 	 5.2960 	 1.5000
  0.2400 	 1.4000 	 5.9910 	 11.5451 	 1.1894 	 63.4296 	 1.4039 	 58.6576 	 24.3470 	 4.7720 	 1.6000
  0.2400 	 1.4000 	 5.9529 	 11.9398 	 1.2375 	 62.0657 	 1.4556 	 57.7894 	 22.6115 	 4.2764 	 1.7000
  0.2400 	 1.4000 	 5.9148 	 12.3269 	 1.2849 	 60.7547 	 1.5065 	 56.9530 	 20.7917 	 3.8016 	 1.8000
  0.2400 	 1.4000 	 5.8768 	 12.7071 	 1.3318 	 59.4861 	 1.5566 	 56.1461 	 18.8622 	 3.3400 	 1.9000
  0.2500 	 1.6000 	 6.2669 	 8.9179 	 0.8052 	 68.7038 	 1.0540 	 67.1780 	 4.9198 	 1.5258 	 1.0000
  0.2500 	 1.5000 	 6.1737 	 9.8447 	 0.9422 	 68.7861 	 1.1755 	 63.8953 	 18.7419 	 4.8908 	 1.2000
  0.2500 	 1.4000 	 6.1052 	 10.3053 	 1.0366 	 68.6191 	 1.2429 	 61.4872 	 30.9838 	 7.1319 	 1.3000
  0.2500 	 1.5000 	 6.1382 	 10.2775 	 0.9917 	 66.7938 	 1.2302 	 62.9035 	 15.6121 	 3.8903 	 1.3000
  0.2500 	 1.4000 	 6.0671 	 10.7290 	 1.0874 	 67.0286 	 1.2977 	 60.5027 	 29.6263 	 6.5258 	 1.4000
  0.2500 	 1.5000 	 6.1026 	 10.6976 	 1.0400 	 64.7726 	 1.2835 	 61.9564 	 11.7941 	 2.8162 	 1.4000
  0.2500 	 1.4000 	 6.0290 	 11.1418 	 1.1372 	 65.5309 	 1.3513 	 59.5609 	 28.2366 	 5.9700 	 1.5000
  0.2500 	 1.5000 	 6.0671 	 11.1067 	 1.0874 	 62.4549 	 1.3357 	 61.0494 	 6.1244 	 1.4055 	 1.5000
  0.2500 	 1.4000 	 5.9910 	 11.5451 	 1.1861 	 64.1131 	 1.4039 	 58.6576 	 26.8128 	 5.4555 	 1.6000
  0.2500 	 1.4000 	 5.9529 	 11.9398 	 1.2343 	 62.7644 	 1.4556 	 57.7894 	 25.3512 	 4.9751 	 1.7000
  0.2500 	 1.4000 	 5.9148 	 12.3269 	 1.2818 	 61.4755 	 1.5065 	 56.9530 	 23.8456 	 4.5224 	 1.8000
  0.2500 	 1.4000 	 5.8768 	 12.7071 	 1.3287 	 60.2380 	 1.5566 	 56.1461 	 22.2868 	 4.0920 	 1.9000
  0.2600 	 1.6000 	 6.2336 	 9.3791 	 0.8516 	 67.1844 	 1.1110 	 66.1223 	 3.4803 	 1.0620 	 1.1000
  0.2600 	 1.5000 	 6.1737 	 9.8447 	 0.9385 	 69.7286 	 1.1755 	 63.8953 	 21.5213 	 5.8333 	 1.2000
  0.2600 	 1.4000 	 6.1052 	 10.3053 	 1.0331 	 69.2552 	 1.2429 	 61.4872 	 32.4829 	 7.7680 	 1.3000
  0.2600 	 1.5000 	 6.1382 	 10.2775 	 0.9881 	 67.8319 	 1.2302 	 62.9035 	 19.0551 	 4.9283 	 1.3000
  0.2600 	 1.4000 	 6.0671 	 10.7290 	 1.0839 	 67.6595 	 1.2977 	 60.5027 	 31.2919 	 7.1568 	 1.4000
  0.2600 	 1.5000 	 6.1026 	 10.6976 	 1.0365 	 65.9907 	 1.2835 	 61.9564 	 16.2880 	 4.0343 	 1.4000
  0.2600 	 1.4000 	 6.0290 	 11.1418 	 1.1338 	 66.1601 	 1.3513 	 59.5609 	 30.0766 	 6.5992 	 1.5000
  0.2600 	 1.5000 	 6.0671 	 11.1067 	 1.0839 	 64.1516 	 1.3357 	 61.0494 	 13.0391 	 3.1022 	 1.5000
  0.2600 	 1.4000 	 5.9910 	 11.5451 	 1.1828 	 64.7439 	 1.4039 	 58.6576 	 28.8379 	 6.0862 	 1.6000
  0.2600 	 1.5000 	 6.0316 	 11.5060 	 1.1305 	 62.1941 	 1.3868 	 60.1786 	 8.7962 	 2.0155 	 1.6000
  0.2600 	 1.4000 	 5.9529 	 11.9398 	 1.2310 	 63.4002 	 1.4556 	 57.7894 	 27.5755 	 5.6109 	 1.7000
  0.2600 	 1.4000 	 5.9148 	 12.3269 	 1.2785 	 62.1201 	 1.5065 	 56.9530 	 26.2873 	 5.1671 	 1.8000
  0.2600 	 1.4000 	 5.8768 	 12.7071 	 1.3255 	 60.8960 	 1.5566 	 56.1461 	 24.9702 	 4.7499 	 1.9000
  0.2700 	 1.6000 	 6.2336 	 9.3791 	 0.8475 	 69.6215 	 1.1110 	 66.1223 	 11.0453 	 3.4991 	 1.1000
  0.2700 	 1.6000 	 6.2003 	 9.8235 	 0.8965 	 65.9325 	 1.1661 	 65.1206 	 2.6966 	 0.8119 	 1.2000
  0.2700 	 1.4000 	 6.1052 	 10.3053 	 1.0294 	 69.8658 	 1.2429 	 61.4872 	 33.7486 	 8.3786 	 1.3000
  0.2700 	 1.5000 	 6.1382 	 10.2775 	 0.9843 	 68.7179 	 1.2302 	 62.9035 	 21.6739 	 5.8144 	 1.3000
  0.2700 	 1.4000 	 6.0671 	 10.7290 	 1.0804 	 68.2615 	 1.2977 	 60.5027 	 32.6966 	 7.7588 	 1.4000
  0.2700 	 1.5000 	 6.1026 	 10.6976 	 1.0328 	 66.9515 	 1.2835 	 61.9564 	 19.4554 	 4.9951 	 1.4000
  0.2700 	 1.4000 	 6.0290 	 11.1418 	 1.1303 	 66.7563 	 1.3513 	 59.5609 	 31.6238 	 7.1954 	 1.5000
  0.2700 	 1.5000 	 6.0671 	 11.1067 	 1.0804 	 65.2416 	 1.3357 	 61.0494 	 17.0081 	 4.1922 	 1.5000
  0.2700 	 1.4000 	 5.9910 	 11.5451 	 1.1793 	 65.3369 	 1.4039 	 58.6576 	 30.5330 	 6.6792 	 1.6000
  0.2700 	 1.5000 	 6.0316 	 11.5060 	 1.1270 	 63.5527 	 1.3868 	 60.1786 	 14.2209 	 3.3741 	 1.6000
  0.2700 	 1.4000 	 5.9529 	 11.9398 	 1.2276 	 63.9926 	 1.4556 	 57.7894 	 29.4254 	 6.2032 	 1.7000
  0.2700 	 1.5000 	 5.9961 	 11.8966 	 1.1728 	 61.8219 	 1.4369 	 59.3406 	 10.8392 	 2.4812 	 1.7000
  0.2700 	 1.4000 	 5.9148 	 12.3269 	 1.2752 	 62.7144 	 1.5065 	 56.9530 	 28.3012 	 5.7613 	 1.8000
  0.2700 	 1.5000 	 5.9605 	 12.2794 	 1.2180 	 59.8434 	 1.4862 	 58.5327 	 5.9226 	 1.3107 	 1.8000
  0.2700 	 1.4000 	 5.8768 	 12.7071 	 1.3221 	 61.4948 	 1.5566 	 56.1461 	 27.1597 	 5.3488 	 1.9000
  0.2800 	 1.6000 	 6.2003 	 9.8235 	 0.8924 	 68.4431 	 1.1661 	 65.1206 	 10.6443 	 3.3225 	 1.2000
  0.2800 	 1.5000 	 6.1382 	 10.2775 	 0.9804 	 69.5134 	 1.2302 	 62.9035 	 23.7696 	 6.6099 	 1.3000
  0.2800 	 1.6000 	 6.1670 	 10.2533 	 0.9401 	 65.0179 	 1.2196 	 64.1663 	 2.8603 	 0.8516 	 1.3000
  0.2800 	 1.4000 	 6.0671 	 10.7290 	 1.0766 	 68.8409 	 1.2977 	 60.5027 	 33.8903 	 8.3382 	 1.4000
  0.2800 	 1.5000 	 6.1026 	 10.6976 	 1.0290 	 67.7838 	 1.2835 	 61.9564 	 21.9096 	 5.8274 	 1.4000
  0.2800 	 1.4000 	 6.0290 	 11.1418 	 1.1266 	 67.3272 	 1.3513 	 59.5609 	 32.9378 	 7.7662 	 1.5000
  0.2800 	 1.5000 	 6.0671 	 11.1067 	 1.0766 	 66.1316 	 1.3357 	 61.0494 	 19.9145 	 5.0822 	 1.5000
  0.2800 	 1.4000 	 5.9910 	 11.5451 	 1.1757 	 65.9014 	 1.4039 	 58.6576 	 31.9695 	 7.2438 	 1.6000
  0.2800 	 1.5000 	 6.0316 	 11.5060 	 1.1233 	 64.5358 	 1.3868 	 60.1786 	 17.7461 	 4.3572 	 1.6000
  0.2800 	 1.4000 	 5.9529 	 11.9398 	 1.2241 	 64.5529 	 1.4556 	 57.7894 	 30.9879 	 6.7635 	 1.7000
  0.2800 	 1.5000 	 5.9961 	 11.8966 	 1.1692 	 62.9718 	 1.4369 	 59.3406 	 15.3356 	 3.6312 	 1.7000
  0.2800 	 1.4000 	 5.9148 	 12.3269 	 1.2717 	 63.2724 	 1.5065 	 56.9530 	 29.9943 	 6.3194 	 1.8000
  0.2800 	 1.5000 	 5.9605 	 12.2794 	 1.2145 	 61.4038 	 1.4862 	 58.5327 	 12.5477 	 2.8711 	 1.8000
  0.2800 	 1.4000 	 5.8768 	 12.7071 	 1.3187 	 62.0526 	 1.5566 	 56.1461 	 28.9893 	 5.9065 	 1.9000
  0.2800 	 1.5000 	 5.9250 	 12.6551 	 1.2591 	 59.7552 	 1.5348 	 57.7524 	 9.0414 	 2.0028 	 1.9000
  0.2900 	 1.6000 	 6.2003 	 9.8235 	 0.8882 	 69.7891 	 1.1661 	 65.1206 	 14.4344 	 4.6684 	 1.2000
  0.2900 	 1.6000 	 6.1670 	 10.2533 	 0.9360 	 67.4026 	 1.2196 	 64.1663 	 10.4982 	 3.2363 	 1.3000
  0.2900 	 1.4000 	 6.0671 	 10.7290 	 1.0728 	 69.4022 	 1.2977 	 60.5027 	 34.9092 	 8.8995 	 1.4000
  0.2900 	 1.5000 	 6.1026 	 10.6976 	 1.0251 	 68.5365 	 1.2835 	 61.9564 	 23.8953 	 6.5801 	 1.4000
  0.2900 	 1.6000 	 6.1337 	 10.6704 	 0.9826 	 64.3436 	 1.2718 	 63.2541 	 3.6935 	 1.0894 	 1.4000
  0.2900 	 1.4000 	 6.0290 	 11.1418 	 1.1229 	 67.8779 	 1.3513 	 59.5609 	 34.0608 	 8.3170 	 1.5000
  0.2900 	 1.5000 	 6.0671 	 11.1067 	 1.0728 	 66.9134 	 1.3357 	 61.0494 	 22.2061 	 5.8640 	 1.5000
  0.2900 	 1.4000 	 5.9910 	 11.5451 	 1.1720 	 66.4438 	 1.4039 	 58.6576 	 33.1971 	 7.7861 	 1.6000
  0.2900 	 1.5000 	 6.0316 	 11.5060 	 1.1195 	 65.3617 	 1.3868 	 60.1786 	 20.4110 	 5.1831 	 1.6000
  0.2900 	 1.4000 	 5.9529 	 11.9398 	 1.2204 	 65.0886 	 1.4556 	 57.7894 	 32.3214 	 7.2992 	 1.7000
  0.2900 	 1.5000 	 5.9961 	 11.8966 	 1.1655 	 63.8652 	 1.4369 	 59.3406 	 18.4844 	 4.5245 	 1.7000
  0.2900 	 1.4000 	 5.9148 	 12.3269 	 1.2681 	 63.8032 	 1.5065 	 56.9530 	 31.4358 	 6.8501 	 1.8000
  0.2900 	 1.5000 	 5.9605 	 12.2794 	 1.2108 	 62.4065 	 1.4862 	 58.5327 	 16.3837 	 3.8738 	 1.8000
  0.2900 	 1.4000 	 5.8768 	 12.7071 	 1.3151 	 62.5799 	 1.5566 	 56.1461 	 30.5418 	 6.4339 	 1.9000
  0.2900 	 1.5000 	 5.9250 	 12.6551 	 1.2554 	 60.9635 	 1.5348 	 57.7524 	 14.0334 	 3.2110 	 1.9000
  0.3000 	 1.6000 	 6.1670 	 10.2533 	 0.9317 	 68.7009 	 1.2196 	 64.1663 	 14.2139 	 4.5346 	 1.3000
  0.3000 	 1.5000 	 6.1026 	 10.6976 	 1.0210 	 69.2345 	 1.2835 	 61.9564 	 25.5417 	 7.2780 	 1.4000
  0.3000 	 1.6000 	 6.1337 	 10.6704 	 0.9784 	 66.4771 	 1.2718 	 63.2541 	 10.5656 	 3.2230 	 1.4000
  Pr,            xbj,            kf,             th_e,           Pf,             th_p,           q,              th_q,           th_nq,          th_pq,          Q2	
  0.3000 	 1.5000 	 6.0671 	 11.1067 	 1.0688 	 67.6257 	 1.3357 	 61.0494 	 24.0803 	 6.5763 	 1.5000 <---------
  0.3000 	 1.6000 	 6.1004 	 11.0763 	 1.0241 	 63.7738 	 1.3227 	 62.3798 	 4.7636 	 1.3940 	 1.5000
  0.3000 	 1.4000 	 5.9910 	 11.5451 	 1.1682 	 66.9683 	 1.4039 	 58.6576 	 34.2519 	 8.3107 	 1.6000
  0.3000 	 1.5000 	 6.0316 	 11.5060 	 1.1156 	 66.0966 	 1.3868 	 60.1786 	 22.5459 	 5.9180 	 1.6000
  0.3000 	 1.4000 	 5.9529 	 11.9398 	 1.2166 	 65.6048 	 1.4556 	 57.7894 	 33.4675 	 7.8154 	 1.7000
  0.3000 	 1.5000 	 5.9961 	 11.8966 	 1.1617 	 64.6335 	 1.4369 	 59.3406 	 20.9285 	 5.2929 	 1.7000
  0.3000 	 1.4000 	 5.9148 	 12.3269 	 1.2644 	 64.3126 	 1.5065 	 56.9530 	 32.6739 	 7.3595 	 1.8000
  0.3000 	 1.5000 	 5.9605 	 12.2794 	 1.2070 	 63.2240 	 1.4862 	 58.5327 	 19.2113 	 4.6912 	 1.8000
  0.3000 	 1.4000 	 5.8768 	 12.7071 	 1.3114 	 63.0838 	 1.5566 	 56.1461 	 31.8730 	 6.9378 	 1.9000
  0.3000 	 1.5000 	 5.9250 	 12.6551 	 1.2517 	 61.8550 	 1.5348 	 57.7524 	 17.3675 	 4.1026 	 1.9000
  0.3100 	 1.7000 	 6.2552 	 9.3629 	 0.7969 	 69.7665 	 1.1040 	 67.1822 	 6.6564 	 2.5843 	 1.1000
  0.3100 	 1.6000 	 6.1670 	 10.2533 	 0.9273 	 69.7333 	 1.2196 	 64.1663 	 16.8695 	 5.5670 	 1.3000
  0.3100 	 1.5000 	 6.1026 	 10.6976 	 1.0168 	 69.8921 	 1.2835 	 61.9564 	 26.9275 	 7.9357 	 1.4000
  0.3100 	 1.6000 	 6.1337 	 10.6704 	 0.9741 	 67.7149 	 1.2718 	 63.2541 	 14.1463 	 4.4607 	 1.4000
  0.3100 	 1.5000 	 6.0671 	 11.1067 	 1.0647 	 68.2891 	 1.3357 	 61.0494 	 25.6462 	 7.2397 	 1.5000
  0.3100 	 1.6000 	 6.1004 	 11.0763 	 1.0199 	 65.6452 	 1.3227 	 62.3798 	 10.8010 	 3.2654 	 1.5000
  0.3100 	 1.5000 	 6.0316 	 11.5060 	 1.1116 	 66.7710 	 1.3868 	 60.1786 	 24.3098 	 6.5924 	 1.6000
  0.3100 	 1.6000 	 6.0671 	 11.4722 	 1.0647 	 63.2484 	 1.3726 	 61.5395 	 5.8785 	 1.7089 	 1.6000
  0.3100 	 1.4000 	 5.9529 	 11.9398 	 1.2127 	 66.1051 	 1.4556 	 57.7894 	 34.4570 	 8.3158 	 1.7000
  0.3100 	 1.5000 	 5.9961 	 11.8966 	 1.1577 	 65.3253 	 1.4369 	 59.3406 	 22.9150 	 5.9846 	 1.7000
  0.3100 	 1.4000 	 5.9148 	 12.3269 	 1.2605 	 64.8047 	 1.5065 	 56.9530 	 33.7434 	 7.8517 	 1.8000
  0.3100 	 1.5000 	 5.9605 	 12.2794 	 1.2031 	 63.9408 	 1.4862 	 58.5327 	 21.4551 	 5.4081 	 1.8000
  0.3100 	 1.4000 	 5.8768 	 12.7071 	 1.3076 	 63.5691 	 1.5566 	 56.1461 	 33.0227 	 7.4230 	 1.9000
  0.3100 	 1.5000 	 5.9250 	 12.6551 	 1.2478 	 62.6077 	 1.5348 	 57.7524 	 19.9192 	 4.8553 	 1.9000
  0.3200 	 1.7000 	 6.2238 	 9.8049 	 0.8398 	 68.0534 	 1.1582 	 66.2178 	 4.8223 	 1.8357 	 1.2000
  0.3200 	 1.6000 	 6.1337 	 10.6704 	 0.9697 	 68.7055 	 1.2718 	 63.2541 	 16.7315 	 5.4514 	 1.4000
  0.3200 	 1.5000 	 6.0671 	 11.1067 	 1.0604 	 68.9160 	 1.3357 	 61.0494 	 26.9725 	 7.8666 	 1.5000
  0.3200 	 1.6000 	 6.1004 	 11.0763 	 1.0155 	 66.8144 	 1.3227 	 62.3798 	 14.2048 	 4.4347 	 1.5000
  0.3200 	 1.5000 	 6.0316 	 11.5060 	 1.1074 	 67.4020 	 1.3868 	 60.1786 	 25.7945 	 7.2234 	 1.6000
  0.3200 	 1.6000 	 6.0671 	 11.4722 	 1.0604 	 64.8882 	 1.3726 	 61.5395 	 11.1613 	 3.3487 	 1.6000
  0.3200 	 1.5000 	 5.9961 	 11.8966 	 1.1536 	 65.9644 	 1.4369 	 59.3406 	 24.5718 	 6.6237 	 1.7000
  0.3200 	 1.6000 	 6.0338 	 11.8592 	 1.1045 	 62.7457 	 1.4215 	 60.7303 	 6.9721 	 2.0154 	 1.7000
  0.3200 	 1.4000 	 5.9148 	 12.3269 	 1.2565 	 65.2828 	 1.5065 	 56.9530 	 34.6708 	 8.3298 	 1.8000
  0.3200 	 1.5000 	 5.9605 	 12.2794 	 1.1990 	 64.5929 	 1.4862 	 58.5327 	 23.3024 	 6.0602 	 1.8000
  0.3200 	 1.4000 	 5.8768 	 12.7071 	 1.3037 	 64.0392 	 1.5566 	 56.1461 	 34.0205 	 7.8931 	 1.9000
  0.3200 	 1.5000 	 5.9250 	 12.6551 	 1.2438 	 63.2785 	 1.5348 	 57.7524 	 21.9820 	 5.5261 	 1.9000
  0.3300 	 1.7000 	 6.1925 	 10.2321 	 0.8813 	 66.3309 	 1.2108 	 65.2982 	 2.7589 	 1.0327 	 1.3000
  0.3300 	 1.6000 	 6.1337 	 10.6704 	 0.9652 	 69.5665 	 1.2718 	 63.2541 	 18.7580 	 6.3124 	 1.4000
  0.3300 	 1.5000 	 6.0671 	 11.1067 	 1.0561 	 69.5146 	 1.3357 	 61.0494 	 28.1056 	 8.4652 	 1.5000
  0.3300 	 1.6000 	 6.1004 	 11.0763 	 1.0111 	 67.7605 	 1.3227 	 62.3798 	 16.6972 	 5.3807 	 1.5000
  0.3300 	 1.5000 	 6.0316 	 11.5060 	 1.1031 	 68.0000 	 1.3868 	 60.1786 	 27.0594 	 7.8214 	 1.6000
  0.3300 	 1.6000 	 6.0671 	 11.4722 	 1.0561 	 65.9856 	 1.3726 	 61.5395 	 14.3642 	 4.4461 	 1.6000
  0.3300 	 1.5000 	 5.9961 	 11.8966 	 1.1494 	 66.5649 	 1.4369 	 59.3406 	 25.9762 	 7.2243 	 1.7000
  0.3300 	 1.6000 	 6.0338 	 11.8592 	 1.1002 	 64.1906 	 1.4215 	 60.7303 	 11.6092 	 3.4604 	 1.7000
  0.3300 	 1.5000 	 5.9605 	 12.2794 	 1.1949 	 65.1993 	 1.4862 	 58.5327 	 24.8567 	 6.6665 	 1.8000
  0.3300 	 1.6000 	 6.0005 	 12.2383 	 1.1436 	 62.2571 	 1.4695 	 59.9494 	 8.0215 	 2.3077 	 1.8000
  0.3300 	 1.4000 	 5.8768 	 12.7071 	 1.2997 	 64.4967 	 1.5566 	 56.1461 	 34.8892 	 8.3506 	 1.9000
  0.3300 	 1.5000 	 5.9250 	 12.6551 	 1.2398 	 63.8943 	 1.5348 	 57.7524 	 23.6999 	 6.1419 	 1.9000
  0.3400 	 1.8000 	 6.3039 	 8.8916 	 0.7031 	 69.8742 	 1.0429 	 69.1137 	 1.5728 	 0.7605 	 1.0000
  0.3400 	 1.7000 	 6.1925 	 10.2321 	 0.8764 	 68.7207 	 1.2108 	 65.2982 	 8.8523 	 3.4225 	 1.3000
  0.3400 	 1.6000 	 6.1004 	 11.0763 	 1.0065 	 68.5863 	 1.3227 	 62.3798 	 18.6657 	 6.2065 	 1.5000
  0.3400 	 1.5000 	 6.0316 	 11.5060 	 1.0987 	 68.5721 	 1.3868 	 60.1786 	 28.1457 	 8.3935 	 1.6000
  0.3400 	 1.6000 	 6.0671 	 11.4722 	 1.0516 	 66.8857 	 1.3726 	 61.5395 	 16.7486 	 5.3462 	 1.6000
  0.3400 	 1.5000 	 5.9961 	 11.8966 	 1.1450 	 67.1358 	 1.4369 	 59.3406 	 27.1795 	 7.7952 	 1.7000
  0.3400 	 1.6000 	 6.0338 	 11.8592 	 1.0958 	 65.2166 	 1.4215 	 60.7303 	 14.6020 	 4.4863 	 1.7000
  0.3400 	 1.5000 	 5.9605 	 12.2794 	 1.1906 	 65.7714 	 1.4862 	 58.5327 	 26.1829 	 7.2386 	 1.8000
  0.3400 	 1.6000 	 6.0005 	 12.2383 	 1.1393 	 63.5403 	 1.4695 	 59.9494 	 12.1148 	 3.5909 	 1.8000
  0.3400 	 1.5000 	 5.9250 	 12.6551 	 1.2355 	 64.4703 	 1.5348 	 57.7524 	 25.1569 	 6.7179 	 1.9000
  0.3400 	 1.6000 	 5.9672 	 12.6101 	 1.1821 	 61.7788 	 1.5167 	 59.1945 	 9.0192 	 2.5842 	 1.9000
  0.3500 	 1.7000 	 6.1611 	 10.6466 	 0.9168 	 67.5054 	 1.2620 	 64.4186 	 8.1091 	 3.0869 	 1.4000
  0.3500 	 1.6000 	 6.1004 	 11.0763 	 1.0018 	 69.3348 	 1.3227 	 62.3798 	 20.2788 	 6.9550 	 1.5000
  0.3500 	 1.5000 	 6.0316 	 11.5060 	 1.0942 	 69.1233 	 1.3868 	 60.1786 	 29.0832 	 8.9447 	 1.6000
  0.3500 	 1.6000 	 6.0671 	 11.4722 	 1.0470 	 67.6759 	 1.3726 	 61.5395 	 18.6482 	 6.1364 	 1.6000
  0.3500 	 1.5000 	 5.9961 	 11.8966 	 1.1406 	 67.6831 	 1.4369 	 59.3406 	 28.2177 	 8.3425 	 1.7000
  0.3500 	 1.6000 	 6.0338 	 11.8592 	 1.0913 	 66.0706 	 1.4215 	 60.7303 	 16.8693 	 5.3403 	 1.7000
  0.3500 	 1.5000 	 5.9605 	 12.2794 	 1.1862 	 66.3168 	 1.4862 	 58.5327 	 27.3252 	 7.7841 	 1.8000
  0.3500 	 1.6000 	 6.0005 	 12.2383 	 1.1348 	 64.4976 	 1.4695 	 59.9494 	 14.8988 	 4.5482 	 1.8000
  0.3500 	 1.5000 	 5.9250 	 12.6551 	 1.2312 	 65.0159 	 1.5348 	 57.7524 	 26.4077 	 7.2635 	 1.9000
  0.3500 	 1.6000 	 5.9672 	 12.6101 	 1.1777 	 62.9277 	 1.5167 	 59.1945 	 12.6555 	 3.7331 	 1.9000
