# d(e,e'p)n Central Kinematics Summary
# Beam Energy (Ei) = 11.000 GeV
# 4-Momentum Transfer (Q2) = 1.20 - 1.90 GeV (step: 0.10) 
# x-Bjorken (xbj) = 1.00 - 2.10 (step: 0.10) 
# Missing Momentum (Pr) = 0.00 - 0.41 GeV (step: 0.01) 
# Hadron Out-of-Plane Angle (phi): rotation axis is q-vector 
# thp = thq - thpq, phi = 180  (q-vector scatters at smaller  angles than proton scattering angle)# 
# # 
# Tensor Polarized Deuterium: d(e,e'p) kinematics :
# 
# Header Definitions: 
# Pr   : Central Missing Momentum [GeV/c] 
# xbj  : Bjorken x  
# kf   : e- final momentum [GeV/c] 
# th_e : e- scattering angle [deg] 
# Pf   : final proton momentum [GeV/c] 
# th_p : proton scattering angle [deg] 
# q    : 3-momentum transfer [GeV] 
# th_q : relative angle between q-vector and +z (lab)  [deg] 
# th_nq: relative angle between q-vector and recoil neutron [deg] 
# th_pq: relative angle between q-vector and knocked-out proton [deg] 
# Q2   : 4-Momentum Transfer [GeV^2]  
# 
  Pr,            xbj,            kf,             th_e,           Pf,             th_p,           q,              th_q,           th_nq,          th_pq,          Q2
  ---------------------------------------------------------------------------------------------------------------------------------------------------------------------
  0.0500 	 1.1000 	 10.4187 	 5.8654 	 1.1908 	 59.5419 	 1.2401 	 59.1527 	 9.3091 	 0.3892 	 1.2000
  0.0600 	 1.1000 	 10.4187 	 5.8654 	 1.1901 	 60.7129 	 1.2401 	 59.1527 	 32.6848 	 1.5601 	 1.2000
  0.0600 	 1.1000 	 10.3702 	 6.1194 	 1.2512 	 59.4636 	 1.3025 	 58.0710 	 30.4515 	 1.3926 	 1.3000
  0.0600 	 1.1000 	 10.3218 	 6.3656 	 1.3112 	 58.2850 	 1.3638 	 57.0462 	 28.1969 	 1.2389 	 1.4000
  0.0600 	 1.1000 	 10.2733 	 6.6048 	 1.3704 	 57.1680 	 1.4241 	 56.0723 	 25.8990 	 1.0958 	 1.5000
  0.0600 	 1.1000 	 10.2249 	 6.8378 	 1.4287 	 56.1049 	 1.4835 	 55.1442 	 23.5292 	 0.9606 	 1.6000
  0.0600 	 1.1000 	 10.1764 	 7.0653 	 1.4863 	 55.0885 	 1.5422 	 54.2578 	 21.0479 	 0.8307 	 1.7000
  0.0600 	 1.1000 	 10.1280 	 7.2878 	 1.5433 	 54.1122 	 1.6001 	 53.4092 	 18.3946 	 0.7029 	 1.8000
  0.0600 	 1.1000 	 10.0795 	 7.5057 	 1.5997 	 53.1684 	 1.6575 	 52.5954 	 15.4650 	 0.5730 	 1.9000

  0.0700 	 1.1000 	 10.4187 	 5.8654 	 1.1892 	 61.4182 	 1.2401 	 59.1527 	 42.1875 	 2.2655 	 1.2000
  0.0700 	 1.1000 	 10.3702 	 6.1194 	 1.2503 	 60.1642 	 1.3025 	 58.0710 	 40.7231 	 2.0932 	 1.3000
  0.0700 	 1.1000 	 10.3218 	 6.3656 	 1.3104 	 58.9849 	 1.3638 	 57.0462 	 39.2958 	 1.9388 	 1.4000
  0.0700 	 1.1000 	 10.2733 	 6.6048 	 1.3695 	 57.8715 	 1.4241 	 56.0723 	 37.9011 	 1.7993 	 1.5000
  0.0700 	 1.1000 	 10.2249 	 6.8378 	 1.4279 	 56.8166 	 1.4835 	 55.1442 	 36.5349 	 1.6724 	 1.6000
  0.0700 	 1.1000 	 10.1764 	 7.0653 	 1.4855 	 55.8140 	 1.5422 	 54.2578 	 35.1934 	 1.5562 	 1.7000
  0.0700 	 1.1000 	 10.1280 	 7.2878 	 1.5425 	 54.8586 	 1.6001 	 53.4092 	 33.8728 	 1.4493 	 1.8000
  0.0700 	 1.1000 	 10.0795 	 7.5057 	 1.5989 	 53.9458 	 1.6575 	 52.5954 	 32.5693 	 1.3504 	 1.9000

  0.0800 	 1.1000 	 10.2733 	 6.6048 	 1.3686 	 58.4361 	 1.4241 	 56.0723 	 44.8778 	 2.3639 	 1.5000
  0.0800 	 1.1000 	 10.2249 	 6.8378 	 1.4269 	 57.3712 	 1.4835 	 55.1442 	 43.8770 	 2.2270 	 1.6000
  0.0800 	 1.1000 	 10.1764 	 7.0653 	 1.4846 	 56.3602 	 1.5422 	 54.2578 	 42.9063 	 2.1025 	 1.7000
  0.0800 	 1.1000 	 10.1280 	 7.2878 	 1.5416 	 55.3978 	 1.6001 	 53.4092 	 41.9634 	 1.9886 	 1.8000
  0.0800 	 1.1000 	 10.0795 	 7.5057 	 1.5980 	 54.4793 	 1.6575 	 52.5954 	 41.0465 	 1.8839 	 1.9000

  0.1000 	 1.2000 	 10.4671 	 5.8518 	 1.1233 	 62.7201 	 1.2182 	 61.1692 	 17.6999 	 1.5509 	 1.2000
  0.1000 	 1.2000 	 10.4227 	 6.1040 	 1.1806 	 61.1939 	 1.2780 	 60.1348 	 12.6046 	 1.0591 	 1.3000
  0.1000 	 1.2000 	 10.3783 	 6.3482 	 1.2368 	 59.4489 	 1.3366 	 59.1528 	 3.6653 	 0.2961 	 1.4000 

  Pr,            xbj,            kf,             th_e,           Pf,             th_p,           q,              th_q,           th_nq,          th_pq,          Q2
  ---------------------------------------------------------------------------------------------------------------------------------------------------------------------
  0.1100 	 1.2000 	 10.4671 	 5.8518 	 1.1219 	 63.7748 	 1.2182 	 61.1692 	 27.6229 	 2.6056 	 1.2000
  0.1100 	 1.2000 	 10.4227 	 6.1040 	 1.1792 	 62.3913 	 1.2780 	 60.1348 	 24.9658 	 2.2565 	 1.3000
  0.1100 	 1.2000 	 10.3783 	 6.3482 	 1.2354 	 61.0779 	 1.3366 	 59.1528 	 22.1658 	 1.9251 	 1.4000
  0.1100 	 1.2000 	 10.3339 	 6.5854 	 1.2908 	 59.8192 	 1.3942 	 58.2177 	 19.1434 	 1.6015 	 1.5000 
  0.1100 	 1.2000 	 10.2895 	 6.8163 	 1.3453 	 58.5970 	 1.4508 	 57.3250 	 15.7526 	 1.2720 	 1.6000
  0.1100 	 1.2000 	 10.2451 	 7.0415 	 1.3991 	 57.3807 	 1.5066 	 56.4707 	 11.6542 	 0.9100 	 1.7000
  0.1100 	 1.2000 	 10.2007 	 7.2617 	 1.4522 	 56.0589 	 1.5617 	 55.6514 	 5.3876 	 0.4075 	 1.8000

  0.1200 	 1.2000 	 10.4671 	 5.8518 	 1.1203 	 64.5741 	 1.2182 	 61.1692 	 33.6746 	 3.4049 	 1.2000
  0.1200 	 1.2000 	 10.4227 	 6.1040 	 1.1776 	 63.2076 	 1.2780 	 60.1348 	 31.7399 	 3.0728 	 1.3000
  0.1200 	 1.2000 	 10.3783 	 6.3482 	 1.2339 	 61.9224 	 1.3366 	 59.1528 	 29.7918 	 2.7696 	 1.4000
  0.1200 	 1.2000 	 10.3339 	 6.5854 	 1.2893 	 60.7072 	 1.3942 	 58.2177 	 27.8182 	 2.4895 	 1.5000
  0.1200 	 1.2000 	 10.2895 	 6.8163 	 1.3438 	 59.5527 	 1.4508 	 57.3250 	 25.8043 	 2.2278 	 1.6000
  0.1200 	 1.2000 	 10.2451 	 7.0415 	 1.3976 	 58.4508 	 1.5066 	 56.4707 	 23.7309 	 1.9802 	 1.7000
  0.1200 	 1.2000 	 10.2007 	 7.2617 	 1.4508 	 57.3941 	 1.5617 	 55.6514 	 21.5717 	 1.7427 	 1.8000
  0.1200 	 1.2000 	 10.1563 	 7.4773 	 1.5034 	 56.3752 	 1.6161 	 54.8643 	 19.2889 	 1.5109 	 1.9000

  0.1300 	 1.2000 	 10.4671 	 5.8518 	 1.1186 	 65.2703 	 1.2182 	 61.1692 	 37.9786 	 4.1011 	 1.2000
  0.1300 	 1.2000 	 10.4227 	 6.1040 	 1.1760 	 63.8996 	 1.2780 	 60.1348 	 36.4384 	 3.7648 	 1.3000
  0.1300 	 1.2000 	 10.3783 	 6.3482 	 1.2323 	 62.6143 	 1.3366 	 59.1528 	 34.9118 	 3.4615 	 1.4000
  0.1300 	 1.2000 	 10.3339 	 6.5854 	 1.2876 	 61.4033 	 1.3942 	 58.2177 	 33.3952 	 3.1856 	 1.5000
  0.1300 	 1.2000 	 10.2895 	 6.8163 	 1.3422 	 60.2575 	 1.4508 	 57.3250 	 31.8844 	 2.9326 	 1.6000
  0.1300 	 1.2000 	 10.2451 	 7.0415 	 1.3960 	 59.1695 	 1.5066 	 56.4707 	 30.3745 	 2.6989 	 1.7000
  0.1300 	 1.2000 	 10.2007 	 7.2617 	 1.4492 	 58.1330 	 1.5617 	 55.6514 	 28.8604 	 2.4816 	 1.8000
  0.1300 	 1.2000 	 10.1563 	 7.4773 	 1.5018 	 57.1424 	 1.6161 	 54.8643 	 27.3360 	 2.2781 	 1.9000

  0.1400 	 1.2000 	 10.4671 	 5.8518 	 1.1167 	 65.9091 	 1.2182 	 61.1692 	 41.2341 	 4.7400 	 1.2000
  0.1400 	 1.3000 	 10.5081 	 5.8404 	 1.0626 	 64.0673 	 1.2008 	 62.9310 	 8.6565 	 1.1362 	 1.2000
  0.1400 	 1.2000 	 10.4227 	 6.1040 	 1.1741 	 64.5265 	 1.2780 	 60.1348 	 39.9567 	 4.3917 	 1.3000
  0.1400 	 1.2000 	 10.3783 	 6.3482 	 1.2305 	 63.2321 	 1.3366 	 59.1528 	 38.6991 	 4.0793 	 1.4000
  0.1400 	 1.2000 	 10.3339 	 6.5854 	 1.2859 	 62.0146 	 1.3942 	 58.2177 	 37.4599 	 3.7969 	 1.5000
  0.1400 	 1.2000 	 10.2895 	 6.8163 	 1.3404 	 60.8647 	 1.4508 	 57.3250 	 36.2376 	 3.5397 	 1.6000
  0.1400 	 1.2000 	 10.2451 	 7.0415 	 1.3943 	 59.7747 	 1.5066 	 56.4707 	 35.0300 	 3.3041 	 1.7000
  0.1400 	 1.2000 	 10.2007 	 7.2617 	 1.4475 	 58.7384 	 1.5617 	 55.6514 	 33.8353 	 3.0870 	 1.8000
  0.1400 	 1.2000 	 10.1563 	 7.4773 	 1.5002 	 57.7504 	 1.6161 	 54.8643 	 32.6512 	 2.8861 	 1.9000

  Pr,            xbj,            kf,             th_e,           Pf,             th_p,           q,              th_q,           th_nq,          th_pq,          Q2
  ---------------------------------------------------------------------------------------------------------------------------------------------------------------------
  0.1500 	 1.2000 	 10.4671 	 5.8518 	 1.1147 	 66.5113 	 1.2182 	 61.1692 	 43.7808 	 5.3422 	 1.2000
  0.1500 	 1.3000 	 10.5081 	 5.8404 	 1.0606 	 65.6346 	 1.2008 	 62.9310 	 19.4817 	 2.7035 	 1.2000
  0.1500 	 1.2000 	 10.4227 	 6.1040 	 1.1722 	 65.1131 	 1.2780 	 60.1348 	 42.6975 	 4.9783 	 1.3000
  0.1500 	 1.3000 	 10.4671 	 6.0910 	 1.1147 	 64.0013 	 1.2586 	 61.9419 	 15.4889 	 2.0594 	 1.3000
  0.1500 	 1.2000 	 10.3783 	 6.3482 	 1.2285 	 63.8055 	 1.3366 	 59.1528 	 41.6336 	 4.6527 	 1.4000
  0.1500 	 1.3000 	 10.4261 	 6.3336 	 1.1678 	 62.3239 	 1.3150 	 61.0012 	 10.3530 	 1.3227 	 1.4000
  0.1500 	 1.2000 	 10.3339 	 6.5854 	 1.2840 	 62.5769 	 1.3942 	 58.2177 	 40.5889 	 4.3592 	 1.5000  <-------- **
  0.1500 	 1.2000 	 10.2895 	 6.8163 	 1.3386 	 61.4178 	 1.4508 	 57.3250 	 39.5629 	 4.0928 	 1.6000
  0.1500 	 1.2000 	 10.2451 	 7.0415 	 1.3925 	 60.3203 	 1.5066 	 56.4707 	 38.5546 	 3.8497 	 1.7000
  0.1500 	 1.2000 	 10.2007 	 7.2617 	 1.4457 	 59.2780 	 1.5617 	 55.6514 	 37.5632 	 3.6266 	 1.8000  <-------- **
  0.1500 	 1.2000 	 10.1563 	 7.4773 	 1.4984 	 58.2852 	 1.6161 	 54.8643 	 36.5875 	 3.4209 	 1.9000

  0.1600 	 1.3000 	 10.5081 	 5.8404 	 1.0584 	 66.6388 	 1.2008 	 62.9310 	 25.3267 	 3.7077 	 1.2000
  0.1600 	 1.2000 	 10.4227 	 6.1040 	 1.1701 	 65.6722 	 1.2780 	 60.1348 	 44.8841 	 5.5374 	 1.3000
  0.1600 	 1.3000 	 10.4671 	 6.0910 	 1.1126 	 65.1157 	 1.2586 	 61.9419 	 22.6432 	 3.1738 	 1.3000
  0.1600 	 1.2000 	 10.3783 	 6.3482 	 1.2265 	 64.3493 	 1.3366 	 59.1528 	 43.9700 	 5.1965 	 1.4000
  0.1600 	 1.3000 	 10.4261 	 6.3336 	 1.1657 	 63.6594 	 1.3150 	 61.0012 	 19.7484 	 2.6582 	 1.4000
  0.1600 	 1.2000 	 10.3339 	 6.5854 	 1.2820 	 63.1073 	 1.3942 	 58.2177 	 43.0732 	 4.8896 	 1.5000
  0.1600 	 1.3000 	 10.3851 	 6.5691 	 1.2179 	 62.2449 	 1.3704 	 60.1039 	 16.5208 	 2.1410 	 1.5000  
  0.1600 	 1.2000 	 10.2895 	 6.8163 	 1.3366 	 61.9365 	 1.4508 	 57.3250 	 42.1938 	 4.6116 	 1.6000
  0.1600 	 1.3000 	 10.3441 	 6.7982 	 1.2692 	 60.8335 	 1.4248 	 59.2459 	 12.6955 	 1.5875 	 1.6000
  0.1600 	 1.2000 	 10.2451 	 7.0415 	 1.3905 	 60.8288 	 1.5066 	 56.4707 	 41.3316 	 4.3582 	 1.7000
  0.1600 	 1.3000 	 10.3031 	 7.0216 	 1.3199 	 59.3151 	 1.4784 	 58.4235 	 7.3745 	 0.8915 	 1.7000
  0.1600 	 1.2000 	 10.2007 	 7.2617 	 1.4438 	 59.7775 	 1.5617 	 55.6514 	 40.4861 	 4.1261 	 1.8000
  0.1600 	 1.2000 	 10.1563 	 7.4773 	 1.4964 	 58.7769 	 1.6161 	 54.8643 	 39.6568 	 3.9126 	 1.9000

  0.1700 	 1.3000 	 10.5081 	 5.8404 	 1.0561 	 67.4705 	 1.2008 	 62.9310 	 29.4514 	 4.5395 	 1.2000
  0.1700 	 1.3000 	 10.4671 	 6.0910 	 1.1103 	 65.9774 	 1.2586 	 61.9419 	 27.3644 	 4.0355 	 1.3000
  0.1700 	 1.3000 	 10.4261 	 6.3336 	 1.1635 	 64.5689 	 1.3150 	 61.0012 	 25.2072 	 3.5677 	 1.4000
  0.1700 	 1.3000 	 10.3851 	 6.5691 	 1.2157 	 63.2303 	 1.3704 	 60.1039 	 22.9550 	 3.1263 	 1.5000 
  0.1700 	 1.2000 	 10.2895 	 6.8163 	 1.3345 	 62.4314 	 1.4508 	 57.3250 	 44.3213 	 5.1064 	 1.6000
  0.1700 	 1.3000 	 10.3441 	 6.7982 	 1.2671 	 61.9478 	 1.4248 	 59.2459 	 20.5701 	 2.7019 	 1.6000
  0.1700 	 1.2000 	 10.2451 	 7.0415 	 1.3884 	 61.3120 	 1.5066 	 56.4707 	 43.5732 	 4.8413 	 1.7000
  0.1700 	 1.3000 	 10.3031 	 7.0216 	 1.3177 	 60.7074 	 1.4784 	 58.4235 	 17.9928 	 2.2839 	 1.7000
  0.1700 	 1.2000 	 10.2007 	 7.2617 	 1.4417 	 60.2502 	 1.5617 	 55.6514 	 42.8403 	 4.5988 	 1.8000
  0.1700 	 1.3000 	 10.2621 	 7.2399 	 1.3678 	 59.4911 	 1.5312 	 57.6337 	 15.1164 	 1.8574 	 1.8000
  0.1700 	 1.2000 	 10.1563 	 7.4773 	 1.4944 	 59.2402 	 1.6161 	 54.8643 	 42.1224 	 4.3759 	 1.9000
  0.1700 	 1.3000 	 10.2212 	 7.4535 	 1.4172 	 58.2691 	 1.5832 	 56.8738 	 11.7124 	 1.3953 	 1.9000

  Pr,            xbj,            kf,             th_e,           Pf,             th_p,           q,              th_q,           th_nq,          th_pq,          Q2
  ---------------------------------------------------------------------------------------------------------------------------------------------------------------------
  0.1800 	 1.3000 	 10.5081 	 5.8404 	 1.0537 	 68.2121 	 1.2008 	 62.9310 	 32.6000 	 5.2810 	 1.2000
  0.1800 	 1.3000 	 10.4671 	 6.0910 	 1.1079 	 66.7252 	 1.2586 	 61.9419 	 30.8816 	 4.7833 	 1.3000
  0.1800 	 1.3000 	 10.4261 	 6.3336 	 1.1611 	 65.3300 	 1.3150 	 61.0012 	 29.1372 	 4.3288 	 1.4000
  0.1800 	 1.3000 	 10.3851 	 6.5691 	 1.2134 	 64.0131 	 1.3704 	 60.1039 	 27.3593 	 3.9092 	 1.5000 
  0.1800 	 1.3000 	 10.3441 	 6.7982 	 1.2648 	 62.7633 	 1.4248 	 59.2459 	 25.5376 	 3.5174 	 1.6000
  0.1800 	 1.3000 	 10.3031 	 7.0216 	 1.3155 	 61.5710 	 1.4784 	 58.4235 	 23.6579 	 3.1475 	 1.7000
  0.1800 	 1.2000 	 10.2007 	 7.2617 	 1.4395 	 60.7036 	 1.5617 	 55.6514 	 44.7701 	 5.0522 	 1.8000
  0.1800 	 1.3000 	 10.2621 	 7.2399 	 1.3655 	 60.4274 	 1.5312 	 57.6337 	 21.7007 	 2.7937 	 1.8000  <---------- **
  0.1800 	 1.2000 	 10.1563 	 7.4773 	 1.4922 	 59.6832 	 1.6161 	 54.8643 	 44.1414 	 4.8189 	 1.9000
  0.1800 	 1.3000 	 10.2212 	 7.4535 	 1.4150 	 59.3240 	 1.5832 	 56.8738 	 19.6379 	 2.4502 	 1.9000

  0.1900 	 1.3000 	 10.5081 	 5.8404 	 1.0511 	 68.8972 	 1.2008 	 62.9310 	 35.0990 	 5.9661 	 1.2000
  0.1900 	 1.4000 	 10.5432 	 5.8307 	 1.0035 	 67.0902 	 1.1869 	 64.4810 	 13.9120 	 2.6092 	 1.2000
  0.1900 	 1.3000 	 10.4671 	 6.0910 	 1.1054 	 67.4060 	 1.2586 	 61.9419 	 33.6418 	 5.4641 	 1.3000
  0.1900 	 1.4000 	 10.5052 	 6.0800 	 1.0550 	 64.9310 	 1.2429 	 63.5344 	 7.7778 	 1.3966 	 1.3000
  0.1900 	 1.3000 	 10.4261 	 6.3336 	 1.1587 	 66.0108 	 1.3150 	 61.0012 	 32.1752 	 5.0096 	 1.4000
  0.1900 	 1.3000 	 10.3851 	 6.5691 	 1.2109 	 64.6982 	 1.3704 	 60.1039 	 30.6974 	 4.5943 	 1.5000
  0.1900 	 1.3000 	 10.3441 	 6.7982 	 1.2624 	 63.4574 	 1.4248 	 59.2459 	 29.2052 	 4.2115 	 1.6000
  0.1900 	 1.3000 	 10.3031 	 7.0216 	 1.3131 	 62.2794 	 1.4784 	 58.4235 	 27.6941 	 3.8558 	 1.7000
  0.1900 	 1.3000 	 10.2621 	 7.2399 	 1.3632 	 61.1565 	 1.5312 	 57.6337 	 26.1580 	 3.5228 	 1.8000
  0.1900 	 1.3000 	 10.2212 	 7.4535 	 1.4127 	 60.0821 	 1.5832 	 56.8738 	 24.5895 	 3.2083 	 1.9000

  0.2000 	 1.3000 	 10.5081 	 5.8404 	 1.0483 	 69.5436 	 1.2008 	 62.9310 	 37.1285 	 6.6125 	 1.2000
  0.2000 	 1.4000 	 10.5432 	 5.8307 	 1.0007 	 68.3238 	 1.1869 	 64.4810 	 19.5927 	 3.8429 	 1.2000
  0.2000 	 1.3000 	 10.4671 	 6.0910 	 1.1027 	 68.0425 	 1.2586 	 61.9419 	 35.8712 	 6.1006 	 1.3000
  0.2000 	 1.4000 	 10.5052 	 6.0800 	 1.0523 	 66.5611 	 1.2429 	 63.5344 	 16.1292 	 3.0267 	 1.3000
  0.2000 	 1.3000 	 10.4261 	 6.3336 	 1.1560 	 66.6406 	 1.3150 	 61.0012 	 34.6109 	 5.6394 	 1.4000
  0.2000 	 1.4000 	 10.4671 	 6.3212 	 1.1027 	 64.7737 	 1.2977 	 62.6329 	 11.8862 	 2.1408 	 1.4000
  0.2000 	 1.3000 	 10.3851 	 6.5691 	 1.2084 	 65.3243 	 1.3704 	 60.1039 	 33.3481 	 5.2203 	 1.5000
  0.2000 	 1.4000 	 10.4290 	 6.5552 	 1.1523 	 62.6745 	 1.3513 	 61.7718 	 5.2076 	 0.9027 	 1.5000
  0.2000 	 1.3000 	 10.3441 	 6.7982 	 1.2599 	 64.0826 	 1.4248 	 59.2459 	 32.0823 	 4.8367 	 1.6000
  0.2000 	 1.3000 	 10.3031 	 7.0216 	 1.3106 	 62.9067 	 1.4784 	 58.4235 	 30.8123 	 4.4831 	 1.7000
  0.2000 	 1.3000 	 10.2621 	 7.2399 	 1.3607 	 61.7889 	 1.5312 	 57.6337 	 29.5361 	 4.1552 	 1.8000
  0.2000 	 1.3000 	 10.2212 	 7.4535 	 1.4102 	 60.7229 	 1.5832 	 56.8738 	 28.2510 	 3.8491 	 1.9000

  Pr,            xbj,            kf,             th_e,           Pf,             th_p,           q,              th_q,           th_nq,          th_pq,          Q2
  ---------------------------------------------------------------------------------------------------------------------------------------------------------------------
  0.2100 	 1.4000 	 10.5432 	 5.8307 	 0.9978 	 69.2916 	 1.1869 	 64.4810 	 23.4819 	 4.8107 	 1.2000
  0.2100 	 1.3000 	 10.4671 	 6.0910 	 1.0999 	 68.6473 	 1.2586 	 61.9419 	 37.7046 	 6.7054 	 1.3000
  0.2100 	 1.4000 	 10.5052 	 6.0800 	 1.0494 	 67.6267 	 1.2429 	 63.5344 	 20.8923 	 4.0923 	 1.3000
  0.2100 	 1.3000 	 10.4261 	 6.3336 	 1.1533 	 67.2349 	 1.3150 	 61.0012 	 36.6070 	 6.2337 	 1.4000
  0.2100 	 1.4000 	 10.4671 	 6.3212 	 1.0999 	 66.0238 	 1.2977 	 62.6329 	 18.0474 	 3.3909 	 1.4000
  0.2100 	 1.3000 	 10.3851 	 6.5691 	 1.2057 	 65.9105 	 1.3704 	 60.1039 	 35.5099 	 5.8065 	 1.5000
  0.2100 	 1.4000 	 10.4290 	 6.5552 	 1.1495 	 64.4464 	 1.3513 	 61.7718 	 14.7989 	 2.6746 	 1.5000
  0.2100 	 1.3000 	 10.3441 	 6.7982 	 1.2572 	 64.6630 	 1.4248 	 59.2459 	 34.4142 	 5.4170 	 1.6000
  0.2100 	 1.4000 	 10.3910 	 6.7828 	 1.1982 	 62.8263 	 1.4039 	 60.9473 	 10.7831 	 1.8790 	 1.6000
  0.2100 	 1.3000 	 10.3031 	 7.0216 	 1.3080 	 63.4832 	 1.4784 	 58.4235 	 33.3201 	 5.0596 	 1.7000
  0.2100 	 1.4000 	 10.3529 	 7.0047 	 1.2462 	 60.8576 	 1.4556 	 60.1559 	 4.1676 	 0.7017 	 1.7000
  0.2100 	 1.3000 	 10.2621 	 7.2399 	 1.3581 	 62.3635 	 1.5312 	 57.6337 	 32.2272 	 4.7298 	 1.8000
  0.2100 	 1.3000 	 10.2212 	 7.4535 	 1.4077 	 61.2977 	 1.5832 	 56.8738 	 31.1347 	 4.4239 	 1.9000

  0.2200 	 1.3000 	 10.4671 	 6.0910 	 1.0970 	 69.2285 	 1.2586 	 61.9419 	 39.2299 	 7.2866 	 1.3000
  0.2200 	 1.4000 	 10.5052 	 6.0800 	 1.0464 	 68.5052 	 1.2429 	 63.5344 	 24.3389 	 4.9708 	 1.3000
  0.2200 	 1.3000 	 10.4261 	 6.3336 	 1.1504 	 67.8030 	 1.3150 	 61.0012 	 38.2662 	 6.8018 	 1.4000
  0.2200 	 1.4000 	 10.4671 	 6.3212 	 1.0970 	 66.9636 	 1.2977 	 62.6329 	 22.1195 	 4.3307 	 1.4000
  0.2200 	 1.3000 	 10.3851 	 6.5691 	 1.2028 	 66.4679 	 1.3704 	 60.1039 	 37.3031 	 6.3639 	 1.5000
  0.2200 	 1.4000 	 10.4290 	 6.5552 	 1.1466 	 65.4873 	 1.3513 	 61.7718 	 19.7393 	 3.7154 	 1.5000
  0.2200 	 1.3000 	 10.3441 	 6.7982 	 1.2544 	 65.2115 	 1.4248 	 59.2459 	 36.3425 	 5.9656 	 1.6000
  0.2200 	 1.4000 	 10.3910 	 6.7828 	 1.1954 	 64.0547 	 1.4039 	 60.9473 	 17.1308 	 3.1075 	 1.6000
  0.2200 	 1.3000 	 10.3031 	 7.0216 	 1.3053 	 64.0247 	 1.4784 	 58.4235 	 35.3854 	 5.6011 	 1.7000
  0.2200 	 1.4000 	 10.3529 	 7.0047 	 1.2434 	 62.6375 	 1.4556 	 60.1559 	 14.1653 	 2.4816 	 1.7000
  0.2200 	 1.3000 	 10.2621 	 7.2399 	 1.3554 	 62.8995 	 1.5312 	 57.6337 	 34.4323 	 5.2658 	 1.8000
  0.2200 	 1.4000 	 10.3148 	 7.2214 	 1.2908 	 61.1816 	 1.5065 	 59.3949 	 10.5409 	 1.7867 	 1.8000
  0.2200 	 1.3000 	 10.2212 	 7.4535 	 1.4050 	 61.8295 	 1.5832 	 56.8738 	 33.4833 	 4.9558 	 1.9000
  0.2200 	 1.4000 	 10.2768 	 7.4333 	 1.3376 	 59.4783 	 1.5566 	 58.6617 	 4.9705 	 0.8165 	 1.9000

  0.2300 	 1.5000 	 10.5737 	 5.8222 	 0.9491 	 68.0698 	 1.1755 	 65.8531 	 9.1847 	 2.2167 	 1.2000
  0.2300 	 1.3000 	 10.4671 	 6.0910 	 1.0939 	 69.7912 	 1.2586 	 61.9419 	 40.5082 	 7.8494 	 1.3000
  0.2300 	 1.4000 	 10.5052 	 6.0800 	 1.0433 	 69.2832 	 1.2429 	 63.5344 	 27.0235 	 5.7488 	 1.3000
  0.2300 	 1.3000 	 10.4261 	 6.3336 	 1.1474 	 68.3512 	 1.3150 	 61.0012 	 39.6582 	 7.3500 	 1.4000
  0.2300 	 1.4000 	 10.4671 	 6.3212 	 1.0939 	 67.7666 	 1.2977 	 62.6329 	 25.1881 	 5.1337 	 1.4000
  0.2300 	 1.3000 	 10.3851 	 6.5691 	 1.1999 	 67.0035 	 1.3704 	 60.1039 	 38.8074 	 6.8996 	 1.5000
  0.2300 	 1.4000 	 10.4290 	 6.5552 	 1.1436 	 66.3291 	 1.3513 	 61.7718 	 23.2708 	 4.5573 	 1.5000
  0.2300 	 1.3000 	 10.3441 	 6.7982 	 1.2515 	 65.7365 	 1.4248 	 59.2459 	 37.9584 	 6.4906 	 1.6000
  0.2300 	 1.4000 	 10.3910 	 6.7828 	 1.1924 	 64.9560 	 1.4039 	 60.9473 	 21.2503 	 4.0087 	 1.6000
  0.2300 	 1.3000 	 10.3031 	 7.0216 	 1.3024 	 64.5405 	 1.4784 	 58.4235 	 37.1130 	 6.1169 	 1.7000
  0.2300 	 1.4000 	 10.3529 	 7.0047 	 1.2405 	 63.6329 	 1.4556 	 60.1559 	 19.0935 	 3.4770 	 1.7000
  0.2300 	 1.3000 	 10.2621 	 7.2399 	 1.3526 	 63.4075 	 1.5312 	 57.6337 	 36.2721 	 5.7738 	 1.8000
  0.2300 	 1.4000 	 10.3148 	 7.2214 	 1.2879 	 62.3443 	 1.5065 	 59.3949 	 16.7460 	 2.9494 	 1.8000
  0.2300 	 1.3000 	 10.2212 	 7.4535 	 1.4022 	 62.3311 	 1.5832 	 56.8738 	 35.4363 	 5.4573 	 1.9000
  0.2300 	 1.4000 	 10.2768 	 7.4333 	 1.3347 	 61.0694 	 1.5566 	 58.6617 	 14.1100 	 2.4076 	 1.9000
  0.2400 	 1.5000 	 10.5737 	 5.8222 	 0.9457 	 69.6235 	 1.1755 	 65.8531 	 15.0180 	 3.7704 	 1.2000
  0.2400 	 1.4000 	 10.5052 	 6.0800 	 1.0400 	 69.9971 	 1.2429 	 63.5344 	 29.1928 	 6.4627 	 1.3000
  0.2400 	 1.5000 	 10.5382 	 6.0704 	 0.9951 	 67.4650 	 1.2302 	 64.9463 	 10.4988 	 2.5187 	 1.3000
  0.2400 	 1.3000 	 10.4261 	 6.3336 	 1.1443 	 68.8836 	 1.3150 	 61.0012 	 40.8329 	 7.8824 	 1.4000
  0.2400 	 1.4000 	 10.4671 	 6.3212 	 1.0907 	 68.4894 	 1.2977 	 62.6329 	 27.6283 	 5.8565 	 1.4000
  0.2400 	 1.3000 	 10.3851 	 6.5691 	 1.1968 	 67.5222 	 1.3704 	 60.1039 	 40.0787 	 7.4182 	 1.5000
  0.2400 	 1.4000 	 10.4290 	 6.5552 	 1.1405 	 67.0678 	 1.3513 	 61.7718 	 26.0155 	 5.2960 	 1.5000
  0.2400 	 1.3000 	 10.3441 	 6.7982 	 1.2485 	 66.2431 	 1.4248 	 59.2459 	 39.3247 	 6.9972 	 1.6000
  0.2400 	 1.4000 	 10.3910 	 6.7828 	 1.1894 	 65.7192 	 1.4039 	 60.9473 	 24.3470 	 4.7720 	 1.6000
  0.2400 	 1.3000 	 10.3031 	 7.0216 	 1.2994 	 65.0366 	 1.4784 	 58.4235 	 38.5732 	 6.6131 	 1.7000
  0.2400 	 1.4000 	 10.3529 	 7.0047 	 1.2375 	 64.4322 	 1.4556 	 60.1559 	 22.6115 	 4.2764 	 1.7000
  0.2400 	 1.3000 	 10.2621 	 7.2399 	 1.3496 	 63.8945 	 1.5312 	 57.6337 	 37.8256 	 6.2608 	 1.8000
  0.2400 	 1.4000 	 10.3148 	 7.2214 	 1.2849 	 63.1965 	 1.5065 	 59.3949 	 20.7917 	 3.8016 	 1.8000
  0.2400 	 1.3000 	 10.2212 	 7.4535 	 1.3993 	 62.8100 	 1.5832 	 56.8738 	 37.0830 	 5.9362 	 1.9000
  0.2400 	 1.4000 	 10.2768 	 7.4333 	 1.3318 	 62.0017 	 1.5566 	 58.6617 	 18.8622 	 3.3400 	 1.9000
  0.2500 	 1.5000 	 10.5382 	 6.0704 	 0.9917 	 68.8366 	 1.2302 	 64.9463 	 15.6121 	 3.8903 	 1.3000
  0.2500 	 1.3000 	 10.4261 	 6.3336 	 1.1410 	 69.4033 	 1.3150 	 61.0012 	 41.8277 	 8.4021 	 1.4000
  0.2500 	 1.4000 	 10.4671 	 6.3212 	 1.0874 	 69.1587 	 1.2977 	 62.6329 	 29.6263 	 6.5258 	 1.4000
  0.2500 	 1.5000 	 10.5026 	 6.3105 	 1.0400 	 66.8979 	 1.2835 	 64.0817 	 11.7941 	 2.8162 	 1.4000
  0.2500 	 1.3000 	 10.3851 	 6.5691 	 1.1936 	 68.0273 	 1.3704 	 60.1039 	 41.1581 	 7.9233 	 1.5000
  0.2500 	 1.4000 	 10.4290 	 6.5552 	 1.1372 	 67.7418 	 1.3513 	 61.7718 	 28.2366 	 5.9700 	 1.5000
  0.2500 	 1.5000 	 10.4671 	 6.5433 	 1.0874 	 64.6603 	 1.3357 	 63.2548 	 6.1244 	 1.4055 	 1.5000
  0.2500 	 1.3000 	 10.3441 	 6.7982 	 1.2453 	 66.7353 	 1.4248 	 59.2459 	 40.4868 	 7.4894 	 1.6000
  0.2500 	 1.4000 	 10.3910 	 6.7828 	 1.1861 	 66.4027 	 1.4039 	 60.9473 	 26.8128 	 5.4555 	 1.6000
  0.2500 	 1.3000 	 10.3031 	 7.0216 	 1.2963 	 65.5173 	 1.4784 	 58.4235 	 39.8163 	 7.0938 	 1.7000
  0.2500 	 1.4000 	 10.3529 	 7.0047 	 1.2343 	 65.1309 	 1.4556 	 60.1559 	 25.3512 	 4.9751 	 1.7000
  0.2500 	 1.3000 	 10.2621 	 7.2399 	 1.3466 	 64.3649 	 1.5312 	 57.6337 	 39.1485 	 6.7312 	 1.8000
  0.2500 	 1.4000 	 10.3148 	 7.2214 	 1.2818 	 63.9173 	 1.5065 	 59.3949 	 23.8456 	 4.5224 	 1.8000
  0.2500 	 1.3000 	 10.2212 	 7.4535 	 1.3962 	 63.2713 	 1.5832 	 56.8738 	 38.4848 	 6.3976 	 1.9000
  0.2500 	 1.4000 	 10.2768 	 7.4333 	 1.3287 	 62.7537 	 1.5566 	 58.6617 	 22.2868 	 4.0920 	 1.9000
  0.2600 	 1.5000 	 10.5382 	 6.0704 	 0.9881 	 69.8747 	 1.2302 	 64.9463 	 19.0551 	 4.9283 	 1.3000
  0.2600 	 1.3000 	 10.4261 	 6.3336 	 1.1376 	 69.9126 	 1.3150 	 61.0012 	 42.6709 	 8.9114 	 1.4000
  0.2600 	 1.4000 	 10.4671 	 6.3212 	 1.0839 	 69.7897 	 1.2977 	 62.6329 	 31.2919 	 7.1568 	 1.4000
  0.2600 	 1.5000 	 10.5026 	 6.3105 	 1.0365 	 68.1160 	 1.2835 	 64.0817 	 16.2880 	 4.0343 	 1.4000
  0.2600 	 1.3000 	 10.3851 	 6.5691 	 1.1903 	 68.5212 	 1.3704 	 60.1039 	 42.0769 	 8.4173 	 1.5000
  0.2600 	 1.4000 	 10.4290 	 6.5552 	 1.1338 	 68.3710 	 1.3513 	 61.7718 	 30.0766 	 6.5992 	 1.5000
  0.2600 	 1.5000 	 10.4671 	 6.5433 	 1.0839 	 66.3570 	 1.3357 	 63.2548 	 13.0391 	 3.1022 	 1.5000
  0.2600 	 1.3000 	 10.3441 	 6.7982 	 1.2420 	 67.2156 	 1.4248 	 59.2459 	 41.4787 	 7.9697 	 1.6000
  0.2600 	 1.4000 	 10.3910 	 6.7828 	 1.1828 	 67.0335 	 1.4039 	 60.9473 	 28.8379 	 6.0862 	 1.6000
  0.2600 	 1.5000 	 10.4316 	 6.7696 	 1.1305 	 64.4776 	 1.3868 	 62.4621 	 8.7962 	 2.0155 	 1.6000
  0.2600 	 1.3000 	 10.3031 	 7.0216 	 1.2930 	 65.9855 	 1.4784 	 58.4235 	 40.8794 	 7.5619 	 1.7000
  0.2600 	 1.4000 	 10.3529 	 7.0047 	 1.2310 	 65.7667 	 1.4556 	 60.1559 	 27.5755 	 5.6109 	 1.7000
  0.2600 	 1.3000 	 10.2621 	 7.2399 	 1.3434 	 64.8222 	 1.5312 	 57.6337 	 40.2813 	 7.1885 	 1.8000
  0.2600 	 1.4000 	 10.3148 	 7.2214 	 1.2785 	 64.5620 	 1.5065 	 59.3949 	 26.2873 	 5.1671 	 1.8000
  0.2600 	 1.3000 	 10.2212 	 7.4535 	 1.3931 	 63.7187 	 1.5832 	 56.8738 	 39.6859 	 6.8450 	 1.9000
  0.2600 	 1.4000 	 10.2768 	 7.4333 	 1.3255 	 63.4117 	 1.5566 	 58.6617 	 24.9702 	 4.7499 	 1.9000
  0.2700 	 1.6000 	 10.6003 	 5.8149 	 0.8965 	 67.8870 	 1.1661 	 67.0751 	 2.6966 	 0.8119 	 1.2000
  0.2700 	 1.5000 	 10.5026 	 6.3105 	 1.0328 	 69.0768 	 1.2835 	 64.0817 	 19.4554 	 4.9951 	 1.4000
  0.2700 	 1.3000 	 10.3851 	 6.5691 	 1.1868 	 69.0060 	 1.3704 	 60.1039 	 42.8593 	 8.9021 	 1.5000
  0.2700 	 1.4000 	 10.4290 	 6.5552 	 1.1303 	 68.9672 	 1.3513 	 61.7718 	 31.6238 	 7.1954 	 1.5000
  0.2700 	 1.5000 	 10.4671 	 6.5433 	 1.0804 	 67.4470 	 1.3357 	 63.2548 	 17.0081 	 4.1922 	 1.5000
  0.2700 	 1.3000 	 10.3441 	 6.7982 	 1.2386 	 67.6863 	 1.4248 	 59.2459 	 42.3268 	 8.4403 	 1.6000
  0.2700 	 1.4000 	 10.3910 	 6.7828 	 1.1793 	 67.6265 	 1.4039 	 60.9473 	 30.5330 	 6.6792 	 1.6000
  0.2700 	 1.5000 	 10.4316 	 6.7696 	 1.1270 	 65.8362 	 1.3868 	 62.4621 	 14.2209 	 3.3741 	 1.6000
  0.2700 	 1.3000 	 10.3031 	 7.0216 	 1.2897 	 66.4434 	 1.4784 	 58.4235 	 41.7911 	 8.0198 	 1.7000
  0.2700 	 1.4000 	 10.3529 	 7.0047 	 1.2276 	 66.3591 	 1.4556 	 60.1559 	 29.4254 	 6.2032 	 1.7000
  0.2700 	 1.5000 	 10.3961 	 6.9901 	 1.1728 	 64.1816 	 1.4369 	 61.7004 	 10.8392 	 2.4812 	 1.7000
  0.2700 	 1.3000 	 10.2621 	 7.2399 	 1.3401 	 65.2686 	 1.5312 	 57.6337 	 41.2547 	 7.6349 	 1.8000
  0.2700 	 1.4000 	 10.3148 	 7.2214 	 1.2752 	 65.1562 	 1.5065 	 59.3949 	 28.3012 	 5.7613 	 1.8000
  0.2700 	 1.5000 	 10.3605 	 7.2054 	 1.2180 	 62.2778 	 1.4862 	 60.9671 	 5.9226 	 1.3107 	 1.8000
  0.2700 	 1.3000 	 10.2212 	 7.4535 	 1.3898 	 64.1548 	 1.5832 	 56.8738 	 40.7196 	 7.2810 	 1.9000
  0.2700 	 1.4000 	 10.2768 	 7.4333 	 1.3221 	 64.0105 	 1.5566 	 58.6617 	 27.1597 	 5.3488 	 1.9000
  0.2800 	 1.6000 	 10.5670 	 6.0621 	 0.9401 	 67.0569 	 1.2196 	 66.2053 	 2.8603 	 0.8516 	 1.3000
  0.2800 	 1.5000 	 10.5026 	 6.3105 	 1.0290 	 69.9090 	 1.2835 	 64.0817 	 21.9096 	 5.8274 	 1.4000
  0.2800 	 1.3000 	 10.3851 	 6.5691 	 1.1832 	 69.4831 	 1.3704 	 60.1039 	 43.5246 	 9.3792 	 1.5000
  0.2800 	 1.4000 	 10.4290 	 6.5552 	 1.1266 	 69.5381 	 1.3513 	 61.7718 	 32.9378 	 7.7662 	 1.5000
  0.2800 	 1.5000 	 10.4671 	 6.5433 	 1.0766 	 68.3370 	 1.3357 	 63.2548 	 19.9145 	 5.0822 	 1.5000
  0.2800 	 1.3000 	 10.3441 	 6.7982 	 1.2351 	 68.1487 	 1.4248 	 59.2459 	 43.0519 	 8.9028 	 1.6000
  0.2800 	 1.4000 	 10.3910 	 6.7828 	 1.1757 	 68.1910 	 1.4039 	 60.9473 	 31.9695 	 7.2438 	 1.6000
  0.2800 	 1.5000 	 10.4316 	 6.7696 	 1.1233 	 66.8193 	 1.3868 	 62.4621 	 17.7461 	 4.3572 	 1.6000
  0.2800 	 1.3000 	 10.3031 	 7.0216 	 1.2862 	 66.8927 	 1.4784 	 58.4235 	 42.5737 	 8.4692 	 1.7000
  0.2800 	 1.4000 	 10.3529 	 7.0047 	 1.2241 	 66.9194 	 1.4556 	 60.1559 	 30.9879 	 6.7635 	 1.7000
  0.2800 	 1.5000 	 10.3961 	 6.9901 	 1.1692 	 65.3316 	 1.4369 	 61.7004 	 15.3356 	 3.6312 	 1.7000
  0.2800 	 1.3000 	 10.2621 	 7.2399 	 1.3366 	 65.7061 	 1.5312 	 57.6337 	 42.0929 	 8.0724 	 1.8000
  0.2800 	 1.4000 	 10.3148 	 7.2214 	 1.2717 	 65.7143 	 1.5065 	 59.3949 	 29.9943 	 6.3194 	 1.8000
  0.2800 	 1.5000 	 10.3605 	 7.2054 	 1.2145 	 63.8382 	 1.4862 	 60.9671 	 12.5477 	 2.8711 	 1.8000
  0.2800 	 1.3000 	 10.2212 	 7.4535 	 1.3864 	 64.5814 	 1.5832 	 56.8738 	 41.6116 	 7.7076 	 1.9000
  0.2800 	 1.4000 	 10.2768 	 7.4333 	 1.3187 	 64.5682 	 1.5566 	 58.6617 	 28.9893 	 5.9065 	 1.9000
  0.2800 	 1.5000 	 10.3250 	 7.4159 	 1.2591 	 62.2628 	 1.5348 	 60.2600 	 9.0414 	 2.0028 	 1.9000
  0.2900 	 1.6000 	 10.5670 	 6.0621 	 0.9360 	 69.4416 	 1.2196 	 66.2053 	 10.4982 	 3.2363 	 1.3000
  0.2900 	 1.6000 	 10.5337 	 6.3011 	 0.9826 	 66.4646 	 1.2718 	 65.3751 	 3.6935 	 1.0894 	 1.4000
  0.2900 	 1.3000 	 10.3851 	 6.5691 	 1.1795 	 69.9536 	 1.3704 	 60.1039 	 44.0885 	 9.8497 	 1.5000
  0.2900 	 1.5000 	 10.4671 	 6.5433 	 1.0728 	 69.1188 	 1.3357 	 63.2548 	 22.2061 	 5.8640 	 1.5000
  0.2900 	 1.3000 	 10.3441 	 6.7982 	 1.2315 	 68.6043 	 1.4248 	 59.2459 	 43.6706 	 9.3584 	 1.6000
  0.2900 	 1.4000 	 10.3910 	 6.7828 	 1.1720 	 68.7334 	 1.4039 	 60.9473 	 33.1971 	 7.7861 	 1.6000
  0.2900 	 1.5000 	 10.4316 	 6.7696 	 1.1195 	 67.6452 	 1.3868 	 62.4621 	 20.4110 	 5.1831 	 1.6000
  0.2900 	 1.3000 	 10.3031 	 7.0216 	 1.2826 	 67.3348 	 1.4784 	 58.4235 	 43.2449 	 8.9113 	 1.7000
  0.2900 	 1.4000 	 10.3529 	 7.0047 	 1.2204 	 67.4551 	 1.4556 	 60.1559 	 32.3214 	 7.2992 	 1.7000
  0.2900 	 1.5000 	 10.3961 	 6.9901 	 1.1655 	 66.2250 	 1.4369 	 61.7004 	 18.4844 	 4.5245 	 1.7000
  0.2900 	 1.3000 	 10.2621 	 7.2399 	 1.3331 	 66.1360 	 1.5312 	 57.6337 	 42.8147 	 8.5023 	 1.8000
  0.2900 	 1.4000 	 10.3148 	 7.2214 	 1.2681 	 66.2450 	 1.5065 	 59.3949 	 31.4358 	 6.8501 	 1.8000
  0.2900 	 1.5000 	 10.3605 	 7.2054 	 1.2108 	 64.8409 	 1.4862 	 60.9671 	 16.3837 	 3.8738 	 1.8000
  0.2900 	 1.3000 	 10.2212 	 7.4535 	 1.3829 	 65.0001 	 1.5832 	 56.8738 	 42.3823 	 8.1263 	 1.9000
  0.2900 	 1.4000 	 10.2768 	 7.4333 	 1.3151 	 65.0956 	 1.5566 	 58.6617 	 30.5418 	 6.4339 	 1.9000
  0.2900 	 1.5000 	 10.3250 	 7.4159 	 1.2554 	 63.4710 	 1.5348 	 60.2600 	 14.0334 	 3.2110 	 1.9000
  0.3000 	 1.6000 	 10.5337 	 6.3011 	 0.9784 	 68.5981 	 1.2718 	 65.3751 	 10.5656 	 3.2230 	 1.4000
  0.3000 	 1.5000 	 10.4671 	 6.5433 	 1.0688 	 69.8311 	 1.3357 	 63.2548 	 24.0803 	 6.5763 	 1.5000
  0.3000 	 1.6000 	 10.5004 	 6.5329 	 1.0241 	 65.9744 	 1.3227 	 64.5804 	 4.7636 	 1.3940 	 1.5000
  0.3000 	 1.3000 	 10.3441 	 6.7982 	 1.2277 	 69.0540 	 1.4248 	 59.2459 	 44.1967 	 9.8081 	 1.6000
  0.3000 	 1.4000 	 10.3910 	 6.7828 	 1.1682 	 69.2579 	 1.4039 	 60.9473 	 34.2519 	 8.3107 	 1.6000
  0.3000 	 1.5000 	 10.4316 	 6.7696 	 1.1156 	 68.3801 	 1.3868 	 62.4621 	 22.5459 	 5.9180 	 1.6000
  0.3000 	 1.3000 	 10.3031 	 7.0216 	 1.2789 	 67.7708 	 1.4784 	 58.4235 	 43.8195 	 9.3472 	 1.7000
  0.3000 	 1.4000 	 10.3529 	 7.0047 	 1.2166 	 67.9713 	 1.4556 	 60.1559 	 33.4675 	 7.8154 	 1.7000
  0.3000 	 1.5000 	 10.3961 	 6.9901 	 1.1617 	 66.9933 	 1.4369 	 61.7004 	 20.9285 	 5.2929 	 1.7000
  0.3000 	 1.3000 	 10.2621 	 7.2399 	 1.3294 	 66.5594 	 1.5312 	 57.6337 	 43.4357 	 8.9257 	 1.8000
  0.3000 	 1.4000 	 10.3148 	 7.2214 	 1.2644 	 66.7544 	 1.5065 	 59.3949 	 32.6739 	 7.3595 	 1.8000
  0.3000 	 1.5000 	 10.3605 	 7.2054 	 1.2070 	 65.6584 	 1.4862 	 60.9671 	 19.2113 	 4.6912 	 1.8000
  0.3000 	 1.3000 	 10.2212 	 7.4535 	 1.3793 	 65.4121 	 1.5832 	 56.8738 	 43.0480 	 8.5384 	 1.9000
  0.3000 	 1.4000 	 10.2768 	 7.4333 	 1.3114 	 65.5995 	 1.5566 	 58.6617 	 31.8730 	 6.9378 	 1.9000
  0.3000 	 1.5000 	 10.3250 	 7.4159 	 1.2517 	 64.3626 	 1.5348 	 60.2600 	 17.3675 	 4.1026 	 1.9000
  0.3100 	 1.6000 	 10.5337 	 6.3011 	 0.9741 	 69.8358 	 1.2718 	 65.3751 	 14.1463 	 4.4607 	 1.4000
  0.3100 	 1.6000 	 10.5004 	 6.5329 	 1.0199 	 67.8458 	 1.3227 	 64.5804 	 10.8010 	 3.2654 	 1.5000
  0.3100 	 1.3000 	 10.3441 	 6.7982 	 1.2238 	 69.4987 	 1.4248 	 59.2459 	 44.6414 	 10.2527 	 1.6000
  0.3100 	 1.4000 	 10.3910 	 6.7828 	 1.1642 	 69.7678 	 1.4039 	 60.9473 	 35.1613 	 8.8206 	 1.6000
  0.3100 	 1.5000 	 10.4316 	 6.7696 	 1.1116 	 69.0545 	 1.3868 	 62.4621 	 24.3098 	 6.5924 	 1.6000
  0.3100 	 1.6000 	 10.4671 	 6.7581 	 1.0647 	 65.5266 	 1.3726 	 63.8177 	 5.8785 	 1.7089 	 1.6000
  0.3100 	 1.3000 	 10.3031 	 7.0216 	 1.2751 	 68.2014 	 1.4784 	 58.4235 	 44.3092 	 9.7779 	 1.7000
  0.3100 	 1.4000 	 10.3529 	 7.0047 	 1.2127 	 68.4717 	 1.4556 	 60.1559 	 34.4570 	 8.3158 	 1.7000
  0.3100 	 1.5000 	 10.3961 	 6.9901 	 1.1577 	 67.6850 	 1.4369 	 61.7004 	 22.9150 	 5.9846 	 1.7000
  0.3100 	 1.3000 	 10.2621 	 7.2399 	 1.3256 	 66.9773 	 1.5312 	 57.6337 	 43.9684 	 9.3436 	 1.8000
  0.3100 	 1.4000 	 10.3148 	 7.2214 	 1.2605 	 67.2466 	 1.5065 	 59.3949 	 33.7434 	 7.8517 	 1.8000
  0.3100 	 1.5000 	 10.3605 	 7.2054 	 1.2031 	 66.3752 	 1.4862 	 60.9671 	 21.4551 	 5.4081 	 1.8000
  0.3100 	 1.3000 	 10.2212 	 7.4535 	 1.3755 	 65.8184 	 1.5832 	 56.8738 	 43.6220 	 8.9446 	 1.9000
  0.3100 	 1.4000 	 10.2768 	 7.4333 	 1.3076 	 66.0848 	 1.5566 	 58.6617 	 33.0227 	 7.4230 	 1.9000
  0.3100 	 1.5000 	 10.3250 	 7.4159 	 1.2478 	 65.1153 	 1.5348 	 60.2600 	 19.9192 	 4.8553 	 1.9000
  0.3200 	 1.6000 	 10.5004 	 6.5329 	 1.0155 	 69.0150 	 1.3227 	 64.5804 	 14.2048 	 4.4347 	 1.5000
  0.3200 	 1.5000 	 10.4316 	 6.7696 	 1.1074 	 69.6855 	 1.3868 	 62.4621 	 25.7945 	 7.2234 	 1.6000
  0.3200 	 1.6000 	 10.4671 	 6.7581 	 1.0604 	 67.1664 	 1.3726 	 63.8177 	 11.1613 	 3.3487 	 1.6000
  0.3200 	 1.3000 	 10.3031 	 7.0216 	 1.2711 	 68.6274 	 1.4784 	 58.4235 	 44.7241 	 10.2039 	 1.7000
  0.3200 	 1.4000 	 10.3529 	 7.0047 	 1.2087 	 68.9589 	 1.4556 	 60.1559 	 35.3137 	 8.8030 	 1.7000
  0.3200 	 1.5000 	 10.3961 	 6.9901 	 1.1536 	 68.3242 	 1.4369 	 61.7004 	 24.5718 	 6.6237 	 1.7000
  0.3200 	 1.6000 	 10.4338 	 6.9775 	 1.1045 	 65.0996 	 1.4215 	 63.0842 	 6.9721 	 2.0154 	 1.7000
  0.3200 	 1.3000 	 10.2621 	 7.2399 	 1.3217 	 67.3904 	 1.5312 	 57.6337 	 44.4234 	 9.7567 	 1.8000
  0.3200 	 1.4000 	 10.3148 	 7.2214 	 1.2565 	 67.7246 	 1.5065 	 59.3949 	 34.6708 	 8.3298 	 1.8000
  0.3200 	 1.5000 	 10.3605 	 7.2054 	 1.1990 	 67.0273 	 1.4862 	 60.9671 	 23.3024 	 6.0602 	 1.8000
  0.3200 	 1.3000 	 10.2212 	 7.4535 	 1.3717 	 66.2196 	 1.5832 	 56.8738 	 44.1153 	 9.3458 	 1.9000
  0.3200 	 1.4000 	 10.2768 	 7.4333 	 1.3037 	 66.5549 	 1.5566 	 58.6617 	 34.0205 	 7.8931 	 1.9000
  0.3200 	 1.5000 	 10.3250 	 7.4159 	 1.2438 	 65.7860 	 1.5348 	 60.2600 	 21.9820 	 5.5261 	 1.9000
  0.3300 	 1.7000 	 10.5925 	 6.0548 	 0.8813 	 68.3665 	 1.2108 	 67.3339 	 2.7589 	 1.0327 	 1.3000
  0.3300 	 1.6000 	 10.5004 	 6.5329 	 1.0111 	 69.9611 	 1.3227 	 64.5804 	 16.6972 	 5.3807 	 1.5000
  0.3300 	 1.6000 	 10.4671 	 6.7581 	 1.0561 	 68.2638 	 1.3726 	 63.8177 	 14.3642 	 4.4461 	 1.6000
  0.3300 	 1.4000 	 10.3529 	 7.0047 	 1.2046 	 69.4351 	 1.4556 	 60.1559 	 36.0562 	 9.2792 	 1.7000
  0.3300 	 1.5000 	 10.3961 	 6.9901 	 1.1494 	 68.9247 	 1.4369 	 61.7004 	 25.9762 	 7.2243 	 1.7000
  0.3300 	 1.6000 	 10.4338 	 6.9775 	 1.1002 	 66.5445 	 1.4215 	 63.0842 	 11.6092 	 3.4604 	 1.7000
  0.3300 	 1.3000 	 10.2621 	 7.2399 	 1.3177 	 67.7993 	 1.5312 	 57.6337 	 44.8096 	 10.1656 	 1.8000
  0.3300 	 1.4000 	 10.3148 	 7.2214 	 1.2525 	 68.1909 	 1.5065 	 59.3949 	 35.4768 	 8.7961 	 1.8000
  0.3300 	 1.5000 	 10.3605 	 7.2054 	 1.1949 	 67.6337 	 1.4862 	 60.9671 	 24.8567 	 6.6665 	 1.8000
  0.3300 	 1.6000 	 10.4005 	 7.1915 	 1.1436 	 64.6850 	 1.4695 	 62.3774 	 8.0215 	 2.3077 	 1.8000
  0.3300 	 1.3000 	 10.2212 	 7.4535 	 1.3677 	 66.6165 	 1.5832 	 56.8738 	 44.5374 	 9.7427 	 1.9000
  0.3300 	 1.4000 	 10.2768 	 7.4333 	 1.2997 	 67.0124 	 1.5566 	 58.6617 	 34.8892 	 8.3506 	 1.9000
  0.3300 	 1.5000 	 10.3250 	 7.4159 	 1.2398 	 66.4018 	 1.5348 	 60.2600 	 23.6999 	 6.1419 	 1.9000
  0.3400 	 1.6000 	 10.4671 	 6.7581 	 1.0516 	 69.1639 	 1.3726 	 63.8177 	 16.7486 	 5.3462 	 1.6000
  0.3400 	 1.4000 	 10.3529 	 7.0047 	 1.2003 	 69.9020 	 1.4556 	 60.1559 	 36.6994 	 9.7461 	 1.7000
  0.3400 	 1.5000 	 10.3961 	 6.9901 	 1.1450 	 69.4956 	 1.4369 	 61.7004 	 27.1795 	 7.7952 	 1.7000
  0.3400 	 1.6000 	 10.4338 	 6.9775 	 1.0958 	 67.5705 	 1.4215 	 63.0842 	 14.6020 	 4.4863 	 1.7000
  0.3400 	 1.4000 	 10.3148 	 7.2214 	 1.2483 	 68.6472 	 1.5065 	 59.3949 	 36.1778 	 9.2524 	 1.8000
  0.3400 	 1.5000 	 10.3605 	 7.2054 	 1.1906 	 68.2058 	 1.4862 	 60.9671 	 26.1829 	 7.2386 	 1.8000
  0.3400 	 1.6000 	 10.4005 	 7.1915 	 1.1393 	 65.9682 	 1.4695 	 62.3774 	 12.1148 	 3.5909 	 1.8000
  0.3400 	 1.3000 	 10.2212 	 7.4535 	 1.3637 	 67.0096 	 1.5832 	 56.8738 	 44.8960 	 10.1358 	 1.9000
  0.3400 	 1.4000 	 10.2768 	 7.4333 	 1.2956 	 67.4593 	 1.5566 	 58.6617 	 35.6468 	 8.7975 	 1.9000
  0.3400 	 1.5000 	 10.3250 	 7.4159 	 1.2355 	 66.9778 	 1.5348 	 60.2600 	 25.1569 	 6.7179 	 1.9000
  0.3400 	 1.6000 	 10.3672 	 7.4007 	 1.1821 	 64.2793 	 1.5167 	 61.6951 	 9.0192 	 2.5842 	 1.9000
  0.3500 	 1.7000 	 10.5611 	 6.2929 	 0.9168 	 69.6226 	 1.2620 	 66.5358 	 8.1091 	 3.0869 	 1.4000
  0.3500 	 1.6000 	 10.4671 	 6.7581 	 1.0470 	 69.9541 	 1.3726 	 63.8177 	 18.6482 	 6.1364 	 1.6000
  0.3500 	 1.6000 	 10.4338 	 6.9775 	 1.0913 	 68.4245 	 1.4215 	 63.0842 	 16.8693 	 5.3403 	 1.7000
  0.3500 	 1.4000 	 10.3148 	 7.2214 	 1.2439 	 69.0950 	 1.5065 	 59.3949 	 36.7870 	 9.7002 	 1.8000
  0.3500 	 1.5000 	 10.3605 	 7.2054 	 1.1862 	 68.7513 	 1.4862 	 60.9671 	 27.3252 	 7.7841 	 1.8000
  0.3500 	 1.6000 	 10.4005 	 7.1915 	 1.1348 	 66.9256 	 1.4695 	 62.3774 	 14.8988 	 4.5482 	 1.8000
  0.3500 	 1.4000 	 10.2768 	 7.4333 	 1.2913 	 67.8971 	 1.5566 	 58.6617 	 36.3076 	 9.2354 	 1.9000
  0.3500 	 1.5000 	 10.3250 	 7.4159 	 1.2312 	 67.5235 	 1.5348 	 60.2600 	 26.4077 	 7.2635 	 1.9000
  0.3500 	 1.6000 	 10.3672 	 7.4007 	 1.1777 	 65.4282 	 1.5167 	 61.6951 	 12.6555 	 3.7331 	 1.9000
  0.3600 	 1.7000 	 10.5298 	 6.5237 	 0.9562 	 68.6024 	 1.3119 	 65.7711 	 7.5387 	 2.8313 	 1.5000
  0.3600 	 1.6000 	 10.4338 	 6.9775 	 1.0866 	 69.1794 	 1.4215 	 63.0842 	 18.6926 	 6.0952 	 1.7000
  0.3600 	 1.4000 	 10.3148 	 7.2214 	 1.2395 	 69.5354 	 1.5065 	 59.3949 	 37.3155 	 10.1406 	 1.8000
  0.3600 	 1.5000 	 10.3605 	 7.2054 	 1.1817 	 69.2753 	 1.4862 	 60.9671 	 28.3152 	 8.3082 	 1.8000
  0.3600 	 1.6000 	 10.4005 	 7.1915 	 1.1302 	 67.7346 	 1.4695 	 62.3774 	 17.0452 	 5.3572 	 1.8000
  0.3600 	 1.4000 	 10.2768 	 7.4333 	 1.2869 	 68.3272 	 1.5566 	 58.6617 	 36.8837 	 9.6654 	 1.9000
  0.3600 	 1.5000 	 10.3250 	 7.4159 	 1.2268 	 68.0451 	 1.5348 	 60.2600 	 27.4904 	 7.7852 	 1.9000
  0.3600 	 1.6000 	 10.3672 	 7.4007 	 1.1732 	 66.3212 	 1.5167 	 61.6951 	 15.2387 	 4.6261 	 1.9000
  0.3700 	 1.7000 	 10.5298 	 6.5237 	 0.9511 	 69.9776 	 1.3119 	 65.7711 	 10.8684 	 4.2065 	 1.5000
  0.3700 	 1.7000 	 10.4985 	 6.7480 	 0.9947 	 67.6882 	 1.3607 	 65.0366 	 7.1440 	 2.6516 	 1.6000
  0.3700 	 1.6000 	 10.4338 	 6.9775 	 1.0818 	 69.8682 	 1.4215 	 63.0842 	 20.2051 	 6.7840 	 1.7000
  0.3700 	 1.4000 	 10.3148 	 7.2214 	 1.2350 	 69.9694 	 1.5065 	 59.3949 	 37.7724 	 10.5745 	 1.8000
  0.3700 	 1.5000 	 10.3605 	 7.2054 	 1.1771 	 69.7818 	 1.4862 	 60.9671 	 29.1768 	 8.8147 	 1.8000
  0.3700 	 1.6000 	 10.4005 	 7.1915 	 1.1255 	 68.4548 	 1.4695 	 62.3774 	 18.7877 	 6.0775 	 1.8000
  0.3700 	 1.4000 	 10.2768 	 7.4333 	 1.2824 	 68.7505 	 1.5566 	 58.6617 	 37.3846 	 10.0887 	 1.9000
  0.3700 	 1.5000 	 10.3250 	 7.4159 	 1.2222 	 68.5474 	 1.5348 	 60.2600 	 28.4327 	 8.2874 	 1.9000
  0.3700 	 1.6000 	 10.3672 	 7.4007 	 1.1686 	 67.0869 	 1.5167 	 61.6951 	 17.2638 	 5.3918 	 1.9000
  0.3800 	 1.7000 	 10.4985 	 6.7480 	 0.9896 	 69.0600 	 1.3607 	 65.0366 	 10.5277 	 4.0234 	 1.6000
  0.3800 	 1.7000 	 10.4671 	 6.9663 	 1.0323 	 66.8719 	 1.4085 	 64.3297 	 6.9209 	 2.5423 	 1.7000
  0.3800 	 1.6000 	 10.4005 	 7.1915 	 1.1207 	 69.1147 	 1.4695 	 62.3774 	 20.2428 	 6.7374 	 1.8000
  0.3800 	 1.4000 	 10.2768 	 7.4333 	 1.2779 	 69.1678 	 1.5566 	 58.6617 	 37.8188 	 10.5061 	 1.9000
  0.3800 	 1.5000 	 10.3250 	 7.4159 	 1.2175 	 69.0336 	 1.5348 	 60.2600 	 29.2558 	 8.7736 	 1.9000
  0.3800 	 1.6000 	 10.3672 	 7.4007 	 1.1638 	 67.7736 	 1.5167 	 61.6951 	 18.9237 	 6.0786 	 1.9000
  0.3900 	 1.7000 	 10.4671 	 6.9663 	 1.0272 	 68.2225 	 1.4085 	 64.3297 	 10.3005 	 3.8928 	 1.7000
  0.3900 	 1.6000 	 10.4005 	 7.1915 	 1.1158 	 69.7306 	 1.4695 	 62.3774 	 21.4788 	 7.3533 	 1.8000
  0.3900 	 1.7000 	 10.4358 	 7.1793 	 1.0693 	 66.1435 	 1.4555 	 63.6479 	 6.8564 	 2.4956 	 1.8000
  0.3900 	 1.4000 	 10.2768 	 7.4333 	 1.2731 	 69.5799 	 1.5566 	 58.6617 	 38.1932 	 10.9182 	 1.9000
  0.3900 	 1.5000 	 10.3250 	 7.4159 	 1.2127 	 69.5062 	 1.5348 	 60.2600 	 29.9762 	 9.2463 	 1.9000
  0.3900 	 1.6000 	 10.3672 	 7.4007 	 1.1589 	 68.4056 	 1.5167 	 61.6951 	 20.3188 	 6.7105 	 1.9000
  0.4000 	 1.8000 	 10.5855 	 6.2857 	 0.8543 	 68.7674 	 1.2537 	 67.5823 	 2.5317 	 1.1851 	 1.4000
  0.4000 	 1.7000 	 10.4671 	 6.9663 	 1.0219 	 69.2342 	 1.4085 	 64.3297 	 12.6166 	 4.9045 	 1.7000
  0.4000 	 1.7000 	 10.4358 	 7.1793 	 1.0641 	 67.4559 	 1.4555 	 63.6479 	 10.1763 	 3.8080 	 1.8000
  0.4000 	 1.4000 	 10.2768 	 7.4333 	 1.2683 	 69.9874 	 1.5566 	 58.6617 	 38.5139 	 11.3257 	 1.9000
  0.4000 	 1.5000 	 10.3250 	 7.4159 	 1.2078 	 69.9674 	 1.5348 	 60.2600 	 30.6072 	 9.7074 	 1.9000
  0.4000 	 1.6000 	 10.3672 	 7.4007 	 1.1539 	 68.9971 	 1.5167 	 61.6951 	 21.5099 	 7.3020 	 1.9000
  0.4000 	 1.7000 	 10.4044 	 7.3875 	 1.1056 	 65.4911 	 1.5016 	 62.9892 	 6.9296 	 2.5019 	 1.9000
