# d(e,e'p)n Central Kinematics Summary
# Beam Energy (Ei) = 22.000 GeV
# 4-Momentum Transfer (Q2) = 5.00 - 19.00 GeV (step: 1.00) 
# x-Bjorken (xbj) = 1.00 - 2.10 (step: 0.10) 
# Missing Momentum (Pr) = 0.40 - 1.30 GeV (step: 0.10) 
# Hadron Out-of-Plane Angle (phi): rotation axis is q-vector 
# thp = thq - thpq, phi = 180  (q-vector scatters at smaller  angles than proton scattering angle)# 
# # 
# Tensor Polarized Deuterium: d(e,e'p) kinematics :
# 
# Header Definitions: 
# Pr   : Central Missing Momentum [GeV/c] 
# xbj  : Bjorken x  
# kf   : e- final momentum [GeV/c] 
# th_e : e- scattering angle [deg] 
# Pf   : final proton momentum [GeV/c] 
# th_p : proton scattering angle [deg] 
# q    : 3-momentum transfer [GeV] 
# th_q : relative angle between q-vector and +z (lab)  [deg] 
# th_nq: relative angle between q-vector and recoil neutron [deg] 
# th_pq: relative angle between q-vector and knocked-out proton [deg] 
# Q2   : 4-Momentum Transfer [GeV^2]  
# 
Pr,xbj,kf,th_e,Pf,th_p,q,th_q,th_nq,th_pq,Q2
  0.4000 	 1.4000 	 20.0968 	 6.0959 	 2.5931 	 50.8845 	 2.9363 	 46.6187 	 28.8296 	 4.2658 	 5.0000
  0.4000 	 1.5000 	 20.2237 	 6.0767 	 2.4578 	 49.4271 	 2.8557 	 48.5622 	 5.3214 	 0.8648 	 5.0000
  0.4000 	 1.4000 	 19.7162 	 6.7426 	 2.9947 	 47.0857 	 3.3490 	 43.7255 	 26.0293 	 3.3602 	 6.0000
  0.4000 	 1.4000 	 19.3355 	 7.3550 	 3.3915 	 43.9233 	 3.7549 	 41.2392 	 23.3945 	 2.6841 	 7.0000
  0.4000 	 1.4000 	 18.9549 	 7.9422 	 3.7850 	 41.2225 	 4.1560 	 39.0640 	 20.8786 	 2.1585 	 8.0000
  0.4000 	 1.4000 	 18.5742 	 8.5109 	 4.1761 	 38.8693 	 4.5537 	 37.1339 	 18.4315 	 1.7354 	 9.0000
  0.4000 	 1.4000 	 18.1936 	 9.0658 	 4.5654 	 36.7851 	 4.9486 	 35.4015 	 15.9967 	 1.3836 	 10.0000
  0.4000 	 1.4000 	 17.8130 	 9.6106 	 4.9534 	 34.9118 	 5.3415 	 33.8317 	 13.4995 	 1.0801 	 11.0000
  0.4000 	 1.4000 	 17.4323 	 10.1483 	 5.3403 	 33.2030 	 5.7327 	 32.3975 	 10.8179 	 0.8055 	 12.0000
  0.4000 	 1.4000 	 17.0517 	 10.6814 	 5.7264 	 31.6125 	 6.1226 	 31.0780 	 7.6750 	 0.5345 	 13.0000
  0.4000 	 1.4000 	 16.6711 	 11.2121 	 6.1118 	 30.0269 	 6.5113 	 29.8565 	 2.6041 	 0.1704 	 14.0000
  0.5000 	 1.5000 	 20.2237 	 6.0767 	 2.4115 	 53.5734 	 2.8557 	 48.5622 	 24.9160 	 5.0112 	 5.0000
  0.5000 	 1.6000 	 20.3347 	 6.0601 	 2.2920 	 51.7694 	 2.7880 	 50.3530 	 6.5064 	 1.4165 	 5.0000
  0.5000 	 1.5000 	 19.8684 	 6.7167 	 2.7893 	 49.5249 	 3.2471 	 45.6970 	 21.8651 	 3.8279 	 6.0000
  0.5000 	 1.5000 	 19.5132 	 7.3214 	 3.1619 	 46.1454 	 3.6310 	 43.2225 	 18.8120 	 2.9229 	 7.0000
  0.5000 	 1.5000 	 19.1579 	 7.9000 	 3.5309 	 43.2406 	 4.0097 	 41.0484 	 15.6716 	 2.1922 	 8.0000
  0.5000 	 1.5000 	 18.8026 	 8.4590 	 3.8973 	 40.6755 	 4.3844 	 39.1125 	 12.2753 	 1.5630 	 9.0000
  0.5000 	 1.4000 	 18.1936 	 9.0658 	 4.5213 	 38.5480 	 4.9486 	 35.4015 	 29.7586 	 3.1465 	 10.0000
  0.5000 	 1.5000 	 18.4474 	 9.0031 	 4.2619 	 38.3265 	 4.7562 	 37.3697 	 8.1836 	 0.9569 	 10.0000
  0.5000 	 1.4000 	 17.8130 	 9.6106 	 4.9095 	 36.6487 	 5.3415 	 33.8317 	 28.8529 	 2.8170 	 11.0000
  0.5000 	 1.4000 	 17.4323 	 10.1483 	 5.2965 	 34.9392 	 5.7327 	 32.3975 	 28.0190 	 2.5417 	 12.0000
  0.5000 	 1.4000 	 17.0517 	 10.6814 	 5.6827 	 33.3867 	 6.1226 	 31.0780 	 27.2482 	 2.3088 	 13.0000
  0.5000 	 1.4000 	 16.6711 	 11.2121 	 6.0681 	 31.9660 	 6.5113 	 29.8565 	 26.5335 	 2.1095 	 14.0000
  0.5000 	 1.4000 	 16.2904 	 11.7422 	 6.4530 	 30.6570 	 6.8992 	 28.7197 	 25.8685 	 1.9373 	 15.0000
  0.5000 	 1.4000 	 15.9098 	 12.2735 	 6.8374 	 29.4438 	 7.2863 	 27.6564 	 25.2477 	 1.7874 	 16.0000
  0.5000 	 1.4000 	 15.5291 	 12.8076 	 7.2215 	 28.3134 	 7.6728 	 26.6575 	 24.6666 	 1.6558 	 17.0000
  0.5000 	 1.4000 	 15.1485 	 13.3458 	 7.6051 	 27.2550 	 8.0587 	 25.7154 	 24.1212 	 1.5396 	 18.0000
  0.5000 	 1.4000 	 14.7679 	 13.8897 	 7.9885 	 26.2599 	 8.4442 	 24.8236 	 23.6079 	 1.4363 	 19.0000
  0.6000 	 1.6000 	 20.3347 	 6.0601 	 2.2373 	 55.8180 	 2.7880 	 50.3530 	 20.8016 	 5.4650 	 5.0000
  0.6000 	 1.7000 	 20.4327 	 6.0455 	 2.1307 	 52.1704 	 2.7307 	 52.0052 	 0.5867 	 0.1652 	 5.0000
  0.6000 	 1.5000 	 19.8684 	 6.7167 	 2.7360 	 51.7407 	 3.2471 	 45.6970 	 28.6922 	 6.0437 	 6.0000
  0.6000 	 1.6000 	 20.0016 	 6.6942 	 2.5947 	 51.4794 	 3.1612 	 47.5242 	 17.3551 	 3.9552 	 6.0000
  0.6000 	 1.5000 	 19.5132 	 7.3214 	 3.1092 	 48.2727 	 3.6310 	 43.2225 	 27.1397 	 5.0502 	 7.0000
  0.6000 	 1.6000 	 19.6686 	 7.2923 	 2.9464 	 47.8032 	 3.5264 	 45.0697 	 13.5442 	 2.7335 	 7.0000
  0.6000 	 1.5000 	 19.1579 	 7.9000 	 3.4786 	 45.3326 	 4.0097 	 41.0484 	 25.6649 	 4.2842 	 8.0000
  0.6000 	 1.6000 	 19.3355 	 7.8636 	 3.2943 	 44.5139 	 3.8858 	 42.9048 	 8.8689 	 1.6091 	 8.0000
  0.6000 	 1.5000 	 18.8026 	 8.4590 	 3.8454 	 42.7895 	 4.3844 	 39.1125 	 24.2690 	 3.6771 	 9.0000
  0.6000 	 1.5000 	 18.4474 	 9.0031 	 4.2102 	 40.5548 	 4.7562 	 37.3697 	 22.9468 	 3.1851 	 10.0000
  0.6000 	 1.5000 	 18.0921 	 9.5360 	 4.5734 	 38.5656 	 5.1256 	 35.7863 	 21.6906 	 2.7792 	 11.0000
  0.6000 	 1.5000 	 17.7368 	 10.0606 	 4.9356 	 36.7759 	 5.4931 	 34.3367 	 20.4926 	 2.4392 	 12.0000
  0.6000 	 1.5000 	 17.3816 	 10.5793 	 5.2968 	 35.1510 	 5.8592 	 33.0006 	 19.3449 	 2.1504 	 13.0000
  0.6000 	 1.5000 	 17.0263 	 11.0941 	 5.6572 	 33.6643 	 6.2239 	 31.7619 	 18.2399 	 1.9024 	 14.0000
  0.6000 	 1.5000 	 16.6711 	 11.6070 	 6.0170 	 32.2946 	 6.5877 	 30.6076 	 17.1707 	 1.6869 	 15.0000
  0.6000 	 1.5000 	 16.3158 	 12.1193 	 6.3764 	 31.0250 	 6.9506 	 29.5270 	 16.1304 	 1.4980 	 16.0000
  0.6000 	 1.5000 	 15.9605 	 12.6326 	 6.7352 	 29.8418 	 7.3127 	 28.5110 	 15.1123 	 1.3308 	 17.0000
  0.6000 	 1.5000 	 15.6053 	 13.1482 	 7.0938 	 28.7337 	 7.6742 	 27.5522 	 14.1096 	 1.1815 	 18.0000
  0.6000 	 1.5000 	 15.2500 	 13.6673 	 7.4520 	 27.6911 	 8.0351 	 26.6443 	 13.1152 	 1.0468 	 19.0000
  0.7000 	 1.6000 	 20.3347 	 6.0601 	 2.1755 	 58.2429 	 2.7880 	 50.3530 	 25.2538 	 7.8900 	 5.0000
  0.7000 	 1.7000 	 20.4327 	 6.0455 	 2.0684 	 57.4753 	 2.7307 	 52.0052 	 16.3605 	 5.4701 	 5.0000
  0.7000 	 1.6000 	 20.0016 	 6.6942 	 2.5342 	 53.8258 	 3.1612 	 47.5242 	 23.4141 	 6.3017 	 6.0000
  0.7000 	 1.7000 	 20.1192 	 6.6746 	 2.4084 	 52.7248 	 3.0883 	 49.2189 	 12.1455 	 3.5058 	 6.0000
  0.7000 	 1.6000 	 19.6686 	 7.2923 	 2.8867 	 50.1760 	 3.5264 	 45.0697 	 21.5331 	 5.1063 	 7.0000
  0.7000 	 1.7000 	 19.8057 	 7.2670 	 2.7421 	 48.3301 	 3.4373 	 46.7911 	 6.0393 	 1.5390 	 7.0000
  0.7000 	 1.5000 	 19.1579 	 7.9000 	 3.4197 	 46.8794 	 4.0097 	 41.0484 	 29.7562 	 5.8309 	 8.0000
  0.7000 	 1.6000 	 19.3355 	 7.8636 	 3.2351 	 47.0764 	 3.8858 	 42.9048 	 19.6449 	 4.1716 	 8.0000
  0.7000 	 1.5000 	 18.8026 	 8.4590 	 3.7868 	 44.2396 	 4.3844 	 39.1125 	 28.9109 	 5.1272 	 9.0000
  0.7000 	 1.6000 	 19.0025 	 8.4143 	 3.5806 	 44.3877 	 4.2409 	 40.9705 	 17.7519 	 3.4172 	 9.0000
  0.7000 	 1.5000 	 18.4474 	 9.0031 	 4.1519 	 41.9264 	 4.7562 	 37.3697 	 28.1135 	 4.5568 	 10.0000
  0.7000 	 1.6000 	 18.6694 	 8.9493 	 3.9239 	 42.0149 	 4.5927 	 39.2241 	 15.8394 	 2.7909 	 10.0000
  0.7000 	 1.5000 	 18.0921 	 9.5360 	 4.5154 	 39.8725 	 5.1256 	 35.7863 	 27.3645 	 4.0862 	 11.0000
  0.7000 	 1.6000 	 18.3364 	 9.4721 	 4.2656 	 39.8891 	 4.9419 	 37.6335 	 13.8769 	 2.2556 	 11.0000
  0.7000 	 1.5000 	 17.7368 	 10.0606 	 4.8777 	 38.0289 	 5.4931 	 34.3367 	 26.6618 	 3.6922 	 12.0000
  0.7000 	 1.6000 	 18.0033 	 9.9856 	 4.6061 	 37.9569 	 5.2890 	 36.1741 	 11.8128 	 1.7828 	 12.0000
  0.7000 	 1.5000 	 17.3816 	 10.5793 	 5.2390 	 36.3588 	 5.8592 	 33.0006 	 26.0025 	 3.3582 	 13.0000
  0.7000 	 1.6000 	 17.6702 	 10.4923 	 4.9455 	 36.1722 	 5.6344 	 34.8266 	 9.5502 	 1.3456 	 13.0000
  0.7000 	 1.5000 	 17.0263 	 11.0941 	 5.5996 	 34.8338 	 6.2239 	 31.7619 	 25.3834 	 3.0719 	 14.0000
  0.7000 	 1.6000 	 17.3372 	 10.9939 	 5.2841 	 34.4816 	 5.9785 	 33.5753 	 6.8571 	 0.9062 	 14.0000
  0.7000 	 1.5000 	 16.6711 	 11.6070 	 5.9595 	 33.4318 	 6.5877 	 30.6076 	 24.8012 	 2.8242 	 15.0000
  0.7000 	 1.6000 	 17.0041 	 11.4923 	 5.6221 	 32.7253 	 6.3213 	 32.4077 	 2.5510 	 0.3175 	 15.0000
  0.7000 	 1.5000 	 16.3158 	 12.1193 	 6.3189 	 32.1350 	 6.9506 	 29.5270 	 24.2528 	 2.6081 	 16.0000
  0.7000 	 1.5000 	 15.9605 	 12.6326 	 6.6778 	 30.9292 	 7.3127 	 28.5110 	 23.7353 	 2.4182 	 17.0000
  0.7000 	 1.5000 	 15.6053 	 13.1482 	 7.0364 	 29.8025 	 7.6742 	 27.5522 	 23.2462 	 2.2502 	 18.0000
  0.7000 	 1.5000 	 15.2500 	 13.6673 	 7.3947 	 28.7451 	 8.0351 	 26.6443 	 22.7830 	 2.1008 	 19.0000
  0.8000 	 1.6000 	 20.3347 	 6.0601 	 2.1075 	 60.3045 	 2.7880 	 50.3530 	 27.0813 	 9.9516 	 5.0000
  0.8000 	 1.7000 	 20.4327 	 6.0455 	 1.9998 	 59.9860 	 2.7307 	 52.0052 	 20.3079 	 7.9809 	 5.0000
  0.8000 	 1.8000 	 20.5197 	 6.0327 	 1.9031 	 58.2061 	 2.6816 	 53.5319 	 11.1780 	 4.6742 	 5.0000
  0.8000 	 1.6000 	 20.0016 	 6.6942 	 2.4676 	 55.7075 	 3.1612 	 47.5242 	 26.0432 	 8.1833 	 6.0000
  0.8000 	 1.7000 	 20.1192 	 6.6746 	 2.3414 	 55.3303 	 3.0883 	 49.2189 	 18.1549 	 6.1114 	 6.0000
  0.8000 	 1.8000 	 20.2237 	 6.6573 	 2.2284 	 52.2344 	 3.0258 	 50.7926 	 4.0189 	 1.4417 	 6.0000
  0.8000 	 1.6000 	 19.6686 	 7.2923 	 2.8211 	 51.9316 	 3.5264 	 45.0697 	 24.9177 	 6.8619 	 7.0000
  0.8000 	 1.7000 	 19.8057 	 7.2670 	 2.6762 	 51.4470 	 3.4373 	 46.7911 	 15.7555 	 4.6559 	 7.0000
  0.8000 	 1.6000 	 19.3355 	 7.8636 	 3.1701 	 48.7440 	 3.8858 	 42.9048 	 23.7751 	 5.8392 	 8.0000
  0.8000 	 1.7000 	 19.4923 	 7.8318 	 3.0063 	 48.0986 	 3.7800 	 44.6418 	 13.0964 	 3.4569 	 8.0000
  0.8000 	 1.6000 	 19.0025 	 8.4143 	 3.5161 	 45.9965 	 4.2409 	 40.9705 	 22.6465 	 5.0260 	 9.0000
  0.8000 	 1.7000 	 19.1788 	 8.3755 	 3.3333 	 45.1088 	 4.1182 	 42.7152 	 10.0212 	 2.3936 	 9.0000
  0.8000 	 1.6000 	 18.6694 	 8.9493 	 3.8598 	 43.5893 	 4.5927 	 39.2241 	 21.5450 	 4.3653 	 10.0000
  0.8000 	 1.7000 	 18.8653 	 8.9026 	 3.6579 	 42.2632 	 4.4527 	 40.9709 	 5.9185 	 1.2922 	 10.0000
  0.8000 	 1.6000 	 18.3364 	 9.4721 	 4.2018 	 41.4523 	 4.9419 	 37.6335 	 20.4752 	 3.8188 	 11.0000
  0.8000 	 1.5000 	 17.7368 	 10.0606 	 4.8142 	 39.0522 	 5.4931 	 34.3367 	 29.6500 	 4.7155 	 12.0000
  0.8000 	 1.6000 	 18.0033 	 9.9856 	 4.5424 	 39.5340 	 5.2890 	 36.1741 	 19.4374 	 3.3599 	 12.0000
  0.8000 	 1.5000 	 17.3816 	 10.5793 	 5.1757 	 37.3270 	 5.8592 	 33.0006 	 29.2127 	 4.3264 	 13.0000
  0.8000 	 1.6000 	 17.6702 	 10.4923 	 4.8820 	 37.7961 	 5.6344 	 34.8266 	 18.4298 	 2.9695 	 13.0000
  0.8000 	 1.5000 	 17.0263 	 11.0941 	 5.5363 	 35.7538 	 6.2239 	 31.7619 	 28.8009 	 3.9919 	 14.0000
  0.8000 	 1.6000 	 17.3372 	 10.9939 	 5.2208 	 36.2089 	 5.9785 	 33.5753 	 17.4493 	 2.6336 	 14.0000
  0.8000 	 1.5000 	 16.6711 	 11.6070 	 5.8964 	 34.3092 	 6.5877 	 30.6076 	 28.4135 	 3.7015 	 15.0000
  0.8000 	 1.6000 	 17.0041 	 11.4923 	 5.5589 	 34.7492 	 6.3213 	 32.4077 	 16.4924 	 2.3415 	 15.0000
  0.8000 	 1.5000 	 16.3158 	 12.1193 	 6.2558 	 32.9744 	 6.9506 	 29.5270 	 28.0488 	 3.4474 	 16.0000
  0.8000 	 1.6000 	 16.6711 	 11.9890 	 5.8964 	 33.3985 	 6.6632 	 31.3134 	 15.5548 	 2.0851 	 16.0000
  0.8000 	 1.5000 	 15.9605 	 12.6326 	 6.6149 	 31.7343 	 7.3127 	 28.5110 	 27.7054 	 3.2233 	 17.0000
  0.8000 	 1.6000 	 16.3380 	 12.4852 	 6.2334 	 32.1416 	 7.0042 	 30.2837 	 14.6321 	 1.8579 	 17.0000
  0.8000 	 1.5000 	 15.6053 	 13.1482 	 6.9735 	 30.5766 	 7.6742 	 27.5522 	 27.3818 	 3.0244 	 18.0000
  0.8000 	 1.6000 	 16.0049 	 12.9823 	 6.5700 	 30.9661 	 7.3444 	 29.3112 	 13.7196 	 1.6549 	 18.0000
  0.8000 	 1.5000 	 15.2500 	 13.6673 	 7.3318 	 29.4911 	 8.0351 	 26.6443 	 27.0765 	 2.8468 	 19.0000
  0.8000 	 1.6000 	 15.6719 	 13.4812 	 6.9063 	 29.8618 	 7.6841 	 28.3898 	 12.8119 	 1.4719 	 19.0000
  0.9000 	 1.6000 	 20.3347 	 6.0601 	 2.0338 	 62.1903 	 2.7880 	 50.3530 	 27.6175 	 11.8373 	 5.0000
  0.9000 	 1.7000 	 20.4327 	 6.0455 	 1.9254 	 62.0629 	 2.7307 	 52.0052 	 21.9390 	 10.0577 	 5.0000
  0.9000 	 1.8000 	 20.5197 	 6.0327 	 1.8281 	 60.9217 	 2.6816 	 53.5319 	 15.1444 	 7.3899 	 5.0000
  0.9000 	 1.9000 	 20.5976 	 6.0213 	 1.7400 	 55.8352 	 2.6394 	 54.9450 	 1.7213 	 0.8902 	 5.0000
  0.9000 	 1.6000 	 20.0016 	 6.6942 	 2.3957 	 57.3895 	 3.1612 	 47.5242 	 27.1339 	 9.8653 	 6.0000
  0.9000 	 1.7000 	 20.1192 	 6.6746 	 2.2690 	 57.2894 	 3.0883 	 49.2189 	 20.7285 	 8.0704 	 6.0000
  0.9000 	 1.8000 	 20.2237 	 6.6573 	 2.1555 	 55.9410 	 3.0258 	 50.7926 	 12.4107 	 5.1484 	 6.0000
  0.9000 	 1.6000 	 19.6686 	 7.2923 	 2.7503 	 53.4617 	 3.5264 	 45.0697 	 26.4868 	 8.3920 	 7.0000
  0.9000 	 1.7000 	 19.8057 	 7.2670 	 2.6050 	 53.3528 	 3.4373 	 46.7911 	 19.3147 	 6.5617 	 7.0000
  0.9000 	 1.8000 	 19.9276 	 7.2447 	 2.4750 	 51.5681 	 3.3608 	 48.3963 	 8.7520 	 3.1718 	 7.0000
  0.9000 	 1.6000 	 19.3355 	 7.8636 	 3.1001 	 50.1570 	 3.8858 	 42.9048 	 25.7749 	 7.2522 	 8.0000
  0.9000 	 1.7000 	 19.4923 	 7.8318 	 2.9360 	 50.0164 	 3.7800 	 44.6418 	 17.7922 	 5.3747 	 8.0000
  0.9000 	 1.8000 	 19.6316 	 7.8039 	 2.7894 	 46.6770 	 3.6891 	 46.2676 	 1.2689 	 0.4094 	 8.0000
  0.9000 	 1.6000 	 19.0025 	 8.4143 	 3.4466 	 47.3171 	 4.2409 	 40.9705 	 25.0455 	 6.3466 	 9.0000
  0.9000 	 1.7000 	 19.1788 	 8.3755 	 3.2635 	 47.1271 	 4.1182 	 42.7152 	 16.1972 	 4.4119 	 9.0000
  0.9000 	 1.6000 	 18.6694 	 8.9493 	 3.7907 	 44.8357 	 4.5927 	 39.2241 	 24.3220 	 5.6116 	 10.0000
  0.9000 	 1.7000 	 18.8653 	 8.9026 	 3.5886 	 44.5798 	 4.4527 	 40.9709 	 14.5356 	 3.6089 	 10.0000
  0.9000 	 1.6000 	 18.3364 	 9.4721 	 4.1330 	 42.6381 	 4.9419 	 37.6335 	 23.6163 	 5.0046 	 11.0000
  0.9000 	 1.7000 	 18.5519 	 9.4168 	 3.9117 	 42.2984 	 4.7843 	 39.3785 	 12.7913 	 2.9199 	 11.0000
  0.9000 	 1.6000 	 18.0033 	 9.9856 	 4.4739 	 40.6700 	 5.2890 	 36.1741 	 22.9339 	 4.4959 	 12.0000
  0.9000 	 1.7000 	 18.2384 	 9.9209 	 4.2334 	 40.2231 	 5.1137 	 37.9143 	 10.9232 	 2.3088 	 12.0000
  0.9000 	 1.6000 	 17.6702 	 10.4923 	 4.8137 	 38.8909 	 5.6344 	 34.8266 	 22.2774 	 4.0644 	 13.0000
  0.9000 	 1.7000 	 17.9249 	 10.4172 	 4.5540 	 38.3010 	 5.4412 	 36.5599 	 8.8439 	 1.7411 	 13.0000
  0.9000 	 1.6000 	 17.3372 	 10.9939 	 5.1526 	 37.2696 	 5.9785 	 33.5753 	 21.6471 	 3.6943 	 14.0000
  0.9000 	 1.7000 	 17.6115 	 10.9077 	 4.8736 	 36.4671 	 5.7671 	 35.3002 	 6.3312 	 1.1669 	 14.0000
  0.9000 	 1.6000 	 17.0041 	 11.4923 	 5.4908 	 35.7818 	 6.3213 	 32.4077 	 21.0427 	 3.3740 	 15.0000
  0.9000 	 1.7000 	 17.2980 	 11.3940 	 5.1925 	 34.4983 	 6.0917 	 34.1232 	 2.1648 	 0.3751 	 15.0000
  0.9000 	 1.6000 	 16.6711 	 11.9890 	 5.8284 	 34.4080 	 6.6632 	 31.3134 	 20.4632 	 3.0946 	 16.0000
  0.9000 	 1.5000 	 15.9605 	 12.6326 	 6.5471 	 32.4302 	 7.3127 	 28.5110 	 29.8161 	 3.9192 	 17.0000
  0.9000 	 1.6000 	 16.3380 	 12.4852 	 6.1656 	 33.1327 	 7.0042 	 30.2837 	 19.9072 	 2.8490 	 17.0000
  0.9000 	 1.5000 	 15.6053 	 13.1482 	 6.9058 	 31.2417 	 7.6742 	 27.5522 	 29.5881 	 3.6895 	 18.0000
  0.9000 	 1.6000 	 16.0049 	 12.9823 	 6.5023 	 31.9429 	 7.3444 	 29.3112 	 19.3735 	 2.6317 	 18.0000
  0.9000 	 1.5000 	 15.2500 	 13.6673 	 7.2642 	 30.1282 	 8.0351 	 26.6443 	 29.3721 	 3.4839 	 19.0000
  0.9000 	 1.6000 	 15.6719 	 13.4812 	 6.8386 	 30.8282 	 7.6841 	 28.3898 	 18.8607 	 2.4383 	 19.0000
  1.0000 	 1.6000 	 20.3347 	 6.0601 	 1.9553 	 63.9712 	 2.7880 	 50.3530 	 27.4114 	 13.6182 	 5.0000
  1.0000 	 1.7000 	 20.4327 	 6.0455 	 1.8460 	 63.9263 	 2.7307 	 52.0052 	 22.4161 	 11.9212 	 5.0000
  1.0000 	 1.8000 	 20.5197 	 6.0327 	 1.7478 	 63.0097 	 2.6816 	 53.5319 	 16.7266 	 9.4778 	 5.0000
  1.0000 	 1.9000 	 20.5976 	 6.0213 	 1.6589 	 60.3176 	 2.6394 	 54.9450 	 8.9354 	 5.3726 	 5.0000
  1.0000 	 1.6000 	 20.0016 	 6.6942 	 2.3192 	 58.9579 	 3.1612 	 47.5242 	 27.3709 	 11.4338 	 6.0000
  1.0000 	 1.7000 	 20.1192 	 6.6746 	 2.1919 	 58.9928 	 3.0883 	 49.2189 	 21.8450 	 9.7739 	 6.0000
  1.0000 	 1.8000 	 20.2237 	 6.6573 	 2.0778 	 58.0690 	 3.0258 	 50.7926 	 15.2575 	 7.2763 	 6.0000
  1.0000 	 1.9000 	 20.3172 	 6.6420 	 1.9747 	 54.0457 	 2.9719 	 52.2556 	 3.5367 	 1.7901 	 6.0000
  1.0000 	 1.6000 	 19.6686 	 7.2923 	 2.6751 	 54.8696 	 3.5264 	 45.0697 	 27.0856 	 9.7998 	 7.0000
  1.0000 	 1.7000 	 19.8057 	 7.2670 	 2.5293 	 54.9413 	 3.4373 	 46.7911 	 21.0127 	 8.1501 	 7.0000
  1.0000 	 1.8000 	 19.9276 	 7.2447 	 2.3989 	 53.9160 	 3.3608 	 48.3963 	 13.3408 	 5.5197 	 7.0000
  1.0000 	 1.6000 	 19.3355 	 7.8636 	 3.0258 	 51.4396 	 3.8858 	 42.9048 	 26.6834 	 8.5348 	 8.0000
  1.0000 	 1.7000 	 19.4923 	 7.8318 	 2.8613 	 51.5246 	 3.7800 	 44.6418 	 20.0535 	 6.8829 	 8.0000
  1.0000 	 1.8000 	 19.6316 	 7.8039 	 2.7143 	 50.3075 	 3.6891 	 46.2676 	 11.0242 	 4.0399 	 8.0000
  1.0000 	 1.6000 	 19.0025 	 8.4143 	 3.3729 	 48.4993 	 4.2409 	 40.9705 	 26.2275 	 7.5288 	 9.0000
  1.0000 	 1.7000 	 19.1788 	 8.3755 	 3.1895 	 48.5832 	 4.1182 	 42.7152 	 19.0315 	 5.8680 	 9.0000
  1.0000 	 1.8000 	 19.3355 	 8.3414 	 3.0258 	 47.0365 	 4.0124 	 44.3538 	 8.1419 	 2.6827 	 9.0000
  1.0000 	 1.6000 	 18.6694 	 8.9493 	 3.7175 	 45.9355 	 4.5927 	 39.2241 	 25.7510 	 6.7115 	 10.0000
  1.0000 	 1.7000 	 18.8653 	 8.9026 	 3.5151 	 46.0087 	 4.4527 	 40.9709 	 17.9791 	 5.0378 	 10.0000
  1.0000 	 1.8000 	 19.0395 	 8.8617 	 3.3345 	 43.7183 	 4.3318 	 42.6165 	 3.6762 	 1.1018 	 10.0000
  1.0000 	 1.6000 	 18.3364 	 9.4721 	 4.0601 	 43.6692 	 4.9419 	 37.6335 	 25.2720 	 6.0357 	 11.0000
  1.0000 	 1.7000 	 18.5519 	 9.4168 	 3.8386 	 43.7247 	 4.7843 	 39.3785 	 16.9117 	 4.3462 	 11.0000
  1.0000 	 1.6000 	 18.0033 	 9.9856 	 4.4013 	 41.6430 	 5.2890 	 36.1741 	 24.8006 	 5.4688 	 12.0000
  1.0000 	 1.7000 	 18.2384 	 9.9209 	 4.1606 	 41.6750 	 5.1137 	 37.9143 	 15.8362 	 3.7607 	 12.0000
  1.0000 	 1.6000 	 17.6702 	 10.4923 	 4.7413 	 39.8139 	 5.6344 	 34.8266 	 24.3420 	 4.9873 	 13.0000
  1.0000 	 1.7000 	 17.9249 	 10.4172 	 4.4814 	 39.8175 	 5.4412 	 36.5599 	 14.7534 	 3.2576 	 13.0000
  1.0000 	 1.6000 	 17.3372 	 10.9939 	 5.0804 	 38.1492 	 5.9785 	 33.5753 	 23.8993 	 4.5739 	 14.0000
  1.0000 	 1.7000 	 17.6115 	 10.9077 	 4.8012 	 38.1197 	 5.7671 	 35.3002 	 13.6604 	 2.8195 	 14.0000
  1.0000 	 1.6000 	 17.0041 	 11.4923 	 5.4187 	 36.6233 	 6.3213 	 32.4077 	 23.4736 	 4.2156 	 15.0000
  1.0000 	 1.7000 	 17.2980 	 11.3940 	 5.1202 	 36.5556 	 6.0917 	 34.1232 	 12.5511 	 2.4325 	 15.0000
  1.0000 	 1.6000 	 16.6711 	 11.9890 	 5.7564 	 35.2160 	 6.6632 	 31.3134 	 23.0654 	 3.9026 	 16.0000
  1.0000 	 1.7000 	 16.9845 	 11.8774 	 5.4386 	 35.1043 	 6.4152 	 33.0187 	 11.4154 	 2.0856 	 16.0000
  1.0000 	 1.6000 	 16.3380 	 12.4852 	 6.0937 	 33.9108 	 7.0042 	 30.2837 	 22.6746 	 3.6271 	 17.0000
  1.0000 	 1.7000 	 16.6711 	 12.3594 	 5.7564 	 33.7478 	 6.7378 	 31.9784 	 10.2384 	 1.7694 	 17.0000
  1.0000 	 1.6000 	 16.0049 	 12.9823 	 6.4304 	 32.6943 	 7.3444 	 29.3112 	 22.3005 	 3.3830 	 18.0000
  1.0000 	 1.7000 	 16.3576 	 12.8410 	 6.0738 	 32.4703 	 7.0595 	 30.9951 	 8.9966 	 1.4753 	 18.0000
  1.0000 	 1.6000 	 15.6719 	 13.4812 	 6.7668 	 31.5554 	 7.6841 	 28.3898 	 21.9426 	 3.1656 	 19.0000
  1.0000 	 1.7000 	 16.0441 	 13.3232 	 6.3908 	 31.2564 	 7.3805 	 30.0627 	 7.6506 	 1.1937 	 19.0000
  1.1000 	 1.6000 	 20.3347 	 6.0601 	 1.8723 	 65.6823 	 2.7880 	 50.3530 	 26.7425 	 15.3294 	 5.0000
  1.1000 	 1.7000 	 20.4327 	 6.0455 	 1.7621 	 65.6553 	 2.7307 	 52.0052 	 22.2118 	 13.6501 	 5.0000
  1.1000 	 1.8000 	 20.5197 	 6.0327 	 1.6628 	 64.8001 	 2.6816 	 53.5319 	 17.1798 	 11.2682 	 5.0000
  1.1000 	 1.9000 	 20.5976 	 6.0213 	 1.5727 	 62.5007 	 2.6394 	 54.9450 	 10.8357 	 7.5557 	 5.0000
  1.1000 	 1.6000 	 20.0016 	 6.6942 	 2.2386 	 60.4531 	 3.1612 	 47.5242 	 27.0873 	 12.9290 	 6.0000
  1.1000 	 1.7000 	 20.1192 	 6.6746 	 2.1106 	 60.5519 	 3.0883 	 49.2189 	 22.1511 	 11.3329 	 6.0000
  1.1000 	 1.8000 	 20.2237 	 6.6573 	 1.9957 	 59.8020 	 3.0258 	 50.7926 	 16.5058 	 9.0094 	 6.0000
  1.1000 	 1.9000 	 20.3172 	 6.6420 	 1.8919 	 57.3096 	 2.9719 	 52.2556 	 8.7147 	 5.0540 	 6.0000
  1.1000 	 1.6000 	 19.6686 	 7.2923 	 2.5960 	 56.2004 	 3.5264 	 45.0697 	 27.1032 	 11.1306 	 7.0000
  1.1000 	 1.7000 	 19.8057 	 7.2670 	 2.4497 	 56.3680 	 3.4373 	 46.7911 	 21.7469 	 9.5769 	 7.0000
  1.1000 	 1.8000 	 19.9276 	 7.2447 	 2.3187 	 55.6313 	 3.3608 	 48.3963 	 15.3947 	 7.2350 	 7.0000
  1.1000 	 1.9000 	 20.0367 	 7.2250 	 2.2006 	 52.3283 	 3.2946 	 49.8945 	 4.8733 	 2.4338 	 7.0000
  1.1000 	 1.6000 	 19.3355 	 7.8636 	 2.9477 	 52.6417 	 3.8858 	 42.9048 	 26.9497 	 9.7369 	 8.0000
  1.1000 	 1.7000 	 19.4923 	 7.8318 	 2.7828 	 52.8490 	 3.7800 	 44.6418 	 21.1701 	 8.2072 	 8.0000
  1.1000 	 1.8000 	 19.6316 	 7.8039 	 2.6353 	 52.0695 	 3.6891 	 46.2676 	 14.0155 	 5.8019 	 8.0000
  1.1000 	 1.6000 	 19.0025 	 8.4143 	 3.2955 	 49.5980 	 4.2409 	 40.9705 	 26.7064 	 8.6275 	 9.0000
  1.1000 	 1.7000 	 19.1788 	 8.3755 	 3.1118 	 49.8280 	 4.1182 	 42.7152 	 20.5047 	 7.1128 	 9.0000
  1.1000 	 1.8000 	 19.3355 	 8.3414 	 2.9477 	 48.9608 	 4.0124 	 44.3538 	 12.4294 	 4.6070 	 9.0000
  1.1000 	 1.6000 	 18.6694 	 8.9493 	 3.6406 	 46.9493 	 4.5927 	 39.2241 	 26.4164 	 7.7253 	 10.0000
  1.1000 	 1.7000 	 18.8653 	 8.9026 	 3.4379 	 47.1916 	 4.4527 	 40.9709 	 19.7953 	 6.2207 	 10.0000
  1.1000 	 1.8000 	 19.0395 	 8.8617 	 3.2570 	 46.1890 	 4.3318 	 42.6165 	 10.6320 	 3.5725 	 10.0000
  1.1000 	 1.6000 	 18.3364 	 9.4721 	 3.9836 	 44.6121 	 4.9419 	 37.6335 	 26.1040 	 6.9786 	 11.0000
  1.1000 	 1.7000 	 18.5519 	 9.4168 	 3.7619 	 44.8597 	 4.7843 	 39.3785 	 19.0665 	 5.4812 	 11.0000
  1.1000 	 1.8000 	 18.7434 	 9.3684 	 3.5641 	 43.6552 	 4.6481 	 41.0268 	 8.5451 	 2.6284 	 11.0000
  1.1000 	 1.6000 	 18.0033 	 9.9856 	 4.3251 	 42.5255 	 5.2890 	 36.1741 	 25.7833 	 6.3514 	 12.0000
  1.1000 	 1.7000 	 18.2384 	 9.9209 	 4.0842 	 42.7738 	 5.1137 	 37.9143 	 18.3323 	 4.8595 	 12.0000
  1.1000 	 1.8000 	 18.4474 	 9.8644 	 3.8695 	 41.2380 	 4.9620 	 39.5621 	 5.9048 	 1.6759 	 12.0000
  1.1000 	 1.6000 	 17.6702 	 10.4923 	 4.6653 	 40.6446 	 5.6344 	 34.8266 	 25.4629 	 5.8180 	 13.0000
  1.1000 	 1.7000 	 17.9249 	 10.4172 	 4.4052 	 40.8901 	 5.4412 	 36.5599 	 17.6004 	 4.3302 	 13.0000
  1.1000 	 1.6000 	 17.3372 	 10.9939 	 5.0046 	 38.9348 	 5.9785 	 33.5753 	 25.1477 	 5.3594 	 14.0000
  1.1000 	 1.7000 	 17.6115 	 10.9077 	 4.7253 	 39.1750 	 5.7671 	 35.3002 	 16.8751 	 3.8748 	 14.0000
  1.1000 	 1.6000 	 17.0041 	 11.4923 	 5.3431 	 37.3692 	 6.3213 	 32.4077 	 24.8406 	 4.9615 	 15.0000
  1.1000 	 1.7000 	 17.2980 	 11.3940 	 5.0445 	 37.6023 	 6.0917 	 34.1232 	 16.1585 	 3.4791 	 15.0000
  1.1000 	 1.6000 	 16.6711 	 11.9890 	 5.6810 	 35.9267 	 6.6632 	 31.3134 	 24.5434 	 4.6133 	 16.0000
  1.1000 	 1.7000 	 16.9845 	 11.8774 	 5.3630 	 36.1511 	 6.4152 	 33.0187 	 15.4511 	 3.1324 	 16.0000
  1.1000 	 1.6000 	 16.3380 	 12.4852 	 6.0183 	 34.5901 	 7.0042 	 30.2837 	 24.2569 	 4.3064 	 17.0000
  1.1000 	 1.7000 	 16.6711 	 12.3594 	 5.6810 	 34.8046 	 6.7378 	 31.9784 	 14.7526 	 2.8262 	 17.0000
  1.1000 	 1.6000 	 16.0049 	 12.9823 	 6.3551 	 33.3453 	 7.3444 	 29.3112 	 23.9815 	 4.0341 	 18.0000
  1.1000 	 1.7000 	 16.3576 	 12.8410 	 5.9984 	 33.5488 	 7.0595 	 30.9951 	 14.0621 	 2.5538 	 18.0000
  1.1000 	 1.6000 	 15.6719 	 13.4812 	 6.6916 	 32.1809 	 7.6841 	 28.3898 	 23.7171 	 3.7911 	 19.0000
  1.1000 	 1.7000 	 16.0441 	 13.3232 	 6.3155 	 32.3724 	 7.3805 	 30.0627 	 13.3782 	 2.3096 	 19.0000
  1.2000 	 1.5000 	 20.2237 	 6.0767 	 1.9098 	 66.7543 	 2.8557 	 48.5622 	 29.7936 	 18.1920 	 5.0000
  1.2000 	 1.6000 	 20.3347 	 6.0601 	 1.7853 	 67.3432 	 2.7880 	 50.3530 	 25.7684 	 16.9903 	 5.0000
  1.2000 	 1.7000 	 20.4327 	 6.0455 	 1.6738 	 67.2844 	 2.7307 	 52.0052 	 21.5665 	 15.2792 	 5.0000
  1.2000 	 1.8000 	 20.5197 	 6.0327 	 1.5733 	 66.3877 	 2.6816 	 53.5319 	 16.9602 	 12.8558 	 5.0000
  1.2000 	 1.9000 	 20.5976 	 6.0213 	 1.4818 	 64.1139 	 2.6394 	 54.9450 	 11.3481 	 9.1689 	 5.0000
  1.2000 	 1.6000 	 20.0016 	 6.6942 	 2.1545 	 61.8978 	 3.1612 	 47.5242 	 26.4676 	 14.3736 	 6.0000
  1.2000 	 1.7000 	 20.1192 	 6.6746 	 2.0256 	 62.0148 	 3.0883 	 49.2189 	 21.9536 	 12.7959 	 6.0000
  1.2000 	 1.8000 	 20.2237 	 6.6573 	 1.9098 	 61.3234 	 3.0258 	 50.7926 	 16.9102 	 10.5308 	 6.0000
  1.2000 	 1.9000 	 20.3172 	 6.6420 	 1.8051 	 59.1970 	 2.9719 	 52.2556 	 10.4741 	 6.9413 	 6.0000
  1.2000 	 1.6000 	 19.6686 	 7.2923 	 2.5135 	 57.4785 	 3.5264 	 45.0697 	 26.7503 	 12.4088 	 7.0000
  1.2000 	 1.7000 	 19.8057 	 7.2670 	 2.3666 	 57.6940 	 3.4373 	 46.7911 	 21.9025 	 10.9029 	 7.0000
  1.2000 	 1.8000 	 19.9276 	 7.2447 	 2.2349 	 57.0888 	 3.3608 	 48.3963 	 16.3482 	 8.6924 	 7.0000
  1.2000 	 1.9000 	 20.0367 	 7.2250 	 2.1162 	 54.8073 	 3.2946 	 49.8945 	 8.6861 	 4.9128 	 7.0000
  1.2000 	 1.6000 	 19.3355 	 7.8636 	 2.8664 	 53.7892 	 3.8858 	 42.9048 	 26.8104 	 10.8844 	 8.0000
  1.2000 	 1.7000 	 19.4923 	 7.8318 	 2.7010 	 54.0652 	 3.7800 	 44.6418 	 21.6245 	 9.4235 	 8.0000
  1.2000 	 1.8000 	 19.6316 	 7.8039 	 2.5530 	 53.4864 	 3.6891 	 46.2676 	 15.5061 	 7.2188 	 8.0000
  1.2000 	 1.9000 	 19.7562 	 7.7793 	 2.4198 	 50.7025 	 3.6103 	 47.7903 	 5.8800 	 2.9121 	 8.0000
  1.2000 	 1.6000 	 19.0025 	 8.4143 	 3.2150 	 50.6406 	 4.2409 	 40.9705 	 26.7454 	 9.6701 	 9.0000
  1.2000 	 1.7000 	 19.1788 	 8.3755 	 3.0308 	 50.9558 	 4.1182 	 42.7152 	 21.2237 	 8.2406 	 9.0000
  1.2000 	 1.8000 	 19.3355 	 8.3414 	 2.8664 	 50.3672 	 4.0124 	 44.3538 	 14.4914 	 6.0134 	 9.0000
  1.2000 	 1.6000 	 18.6694 	 8.9493 	 3.5606 	 47.9060 	 4.5927 	 39.2241 	 26.6083 	 8.6819 	 10.0000
  1.2000 	 1.7000 	 18.8653 	 8.9026 	 3.3576 	 48.2475 	 4.4527 	 40.9709 	 20.7560 	 7.2765 	 10.0000
  1.2000 	 1.8000 	 19.0395 	 8.8617 	 3.1764 	 47.6225 	 4.3318 	 42.6165 	 13.3545 	 5.0060 	 10.0000
  1.2000 	 1.6000 	 18.3364 	 9.4721 	 3.9040 	 45.4969 	 4.9419 	 37.6335 	 26.4297 	 7.8634 	 11.0000
  1.2000 	 1.7000 	 18.5519 	 9.4168 	 3.6820 	 45.8564 	 4.7843 	 39.3785 	 20.2533 	 6.4779 	 11.0000
  1.2000 	 1.8000 	 18.7434 	 9.3684 	 3.4840 	 45.1722 	 4.6481 	 41.0268 	 12.1150 	 4.1454 	 11.0000
  1.2000 	 1.6000 	 18.0033 	 9.9856 	 4.2458 	 43.3495 	 5.2890 	 36.1741 	 26.2280 	 7.1754 	 12.0000
  1.2000 	 1.7000 	 18.2384 	 9.9209 	 4.0047 	 43.7214 	 5.1137 	 37.9143 	 19.7343 	 5.8070 	 12.0000
  1.2000 	 1.8000 	 18.4474 	 9.8644 	 3.7898 	 42.9544 	 4.9620 	 39.5621 	 10.7702 	 3.3923 	 12.0000
  1.2000 	 1.6000 	 17.6702 	 10.4923 	 4.5863 	 41.4163 	 5.6344 	 34.8266 	 26.0147 	 6.5897 	 13.0000
  1.2000 	 1.7000 	 17.9249 	 10.4172 	 4.3260 	 41.7967 	 5.4412 	 36.5599 	 19.2104 	 5.2368 	 13.0000
  1.2000 	 1.8000 	 18.1513 	 10.3519 	 4.0941 	 40.9181 	 5.2737 	 38.2047 	 9.2946 	 2.7134 	 13.0000
  1.2000 	 1.6000 	 17.3372 	 10.9939 	 4.9258 	 39.6611 	 5.9785 	 33.5753 	 25.7968 	 6.0857 	 14.0000
  1.2000 	 1.7000 	 17.6115 	 10.9077 	 4.6463 	 40.0472 	 5.7671 	 35.3002 	 18.6885 	 4.7470 	 14.0000
  1.2000 	 1.8000 	 17.8553 	 10.8328 	 4.3973 	 39.0152 	 5.5838 	 36.9404 	 7.6240 	 2.0749 	 14.0000
  1.2000 	 1.6000 	 17.0041 	 11.4923 	 5.2645 	 38.0557 	 6.3213 	 32.4077 	 25.5790 	 5.6479 	 15.0000
  1.2000 	 1.7000 	 17.2980 	 11.3940 	 4.9657 	 38.4457 	 6.0917 	 34.1232 	 18.1729 	 4.3225 	 15.0000
  1.2000 	 1.8000 	 17.5592 	 11.3086 	 4.6996 	 37.1830 	 5.8924 	 35.7573 	 5.5920 	 1.4257 	 15.0000
  1.2000 	 1.6000 	 16.6711 	 11.9890 	 5.6025 	 36.5779 	 6.6632 	 31.3134 	 25.3641 	 5.2645 	 16.0000
  1.2000 	 1.7000 	 16.9845 	 11.8774 	 5.2844 	 36.9702 	 6.4152 	 33.0187 	 17.6660 	 3.9516 	 16.0000
  1.2000 	 1.8000 	 17.2632 	 11.7808 	 5.0011 	 35.2246 	 6.1998 	 34.6458 	 2.4130 	 0.5788 	 16.0000
  1.2000 	 1.6000 	 16.3380 	 12.4852 	 5.9399 	 35.2098 	 7.0042 	 30.2837 	 25.1540 	 4.9261 	 17.0000
  1.2000 	 1.7000 	 16.6711 	 12.3594 	 5.6025 	 35.6035 	 6.7378 	 31.9784 	 17.1693 	 3.6251 	 17.0000
  1.2000 	 1.6000 	 16.0049 	 12.9823 	 6.2769 	 33.9368 	 7.3444 	 29.3112 	 24.9497 	 4.6255 	 18.0000
  1.2000 	 1.7000 	 16.3576 	 12.8410 	 5.9201 	 34.3311 	 7.0595 	 30.9951 	 16.6833 	 3.3360 	 18.0000
  1.2000 	 1.6000 	 15.6719 	 13.4812 	 6.6134 	 32.7468 	 7.6841 	 28.3898 	 24.7519 	 4.3570 	 19.0000
  1.2000 	 1.7000 	 16.0441 	 13.3232 	 6.2372 	 33.1412 	 7.3805 	 30.0627 	 16.2084 	 3.0784 	 19.0000
