# +/- 35 deg
# +/- 50 deg
# MIT-Bates
# Min Q2: 2.9 GeV^2

# d(e,e'p)n Central Kinematics Summary
# Beam Energy (Ei) = 10.549 GeV
# 4-Momentum Transfer (Q2) = 2.90 - 4.50 GeV (step: 0.10) 
# x-Bjorken (xbj) = 1.00 - 2.0 (step: 0.10) 
# Missing Momentum (Pr) = 0.00 - 1.0 GeV (step: 0.10) 
# Hadron Out-of-Plane Angle (phi) = 180 deg 
# thp = thq - thpq,  (q-vector scatters at larger  angles than proton scattering angle)# 
# 
# Tensor Polarized Deuterium: d(e,e'p) kinematics :
# 
# Header Definitions: 
# Pr   : Central Missing Momentum [GeV/c] 
# xbj  : Bjorken x  
# kf   : e- final momentum [GeV/c] 
# th_e : e- scattering angle [deg] 
# Pf   : final proton momentum [GeV/c] 
# th_p : proton scattering angle [deg] 
# q    : 3-momentum transfer [GeV] 
# th_q : relative angle between q-vector and +z (lab)  [deg] 
# th_nq: relative angle between q-vector and recoil neutron [deg] 
# th_pq: relative angle between q-vector and knocked-out proton [deg] 
# Q2   : 4-Momentum Transfer [GeV^2]  
# 
#! Pr[f,0]/ 	  xbj[f,1]/ 	 kf[f,2]/ 	 th_e[f,3]/ 	 Pf[f,4]/ 	 th_p[f,5]/ 	 q[f,6]/ 	 th_q[f,7]/ 	 th_nq[f,8]/ 	 th_pq[f,9]/ 	 Q2[f,10]/
  0.1000 	 1.0000 	 8.3108 	 12.5658 	 3.0268 	 34.6860 	 3.0347 	 36.5707 	 84.5362 	 1.8847 	 4.2000
  0.1000 	 1.0000 	 8.2576 	 12.7562 	 3.0826 	 34.3052 	 3.0904 	 36.1558 	 84.5603 	 1.8507 	 4.3000
  0.1000 	 1.0000 	 8.2043 	 12.9464 	 3.1382 	 33.9317 	 3.1461 	 35.7496 	 84.5834 	 1.8179 	 4.4000
  0.1000 	 1.0000 	 8.1510 	 13.1362 	 3.1938 	 33.5653 	 3.2016 	 35.3516 	 84.6055 	 1.7863 	 4.5000
  0.2000 	 1.0000 	 8.5773 	 11.6061 	 2.7300 	 34.6407 	 2.7546 	 38.7886 	 80.8653 	 4.1479 	 3.7000
  0.2000 	 1.0000 	 8.5240 	 11.7993 	 2.7863 	 34.2598 	 2.8108 	 38.3244 	 80.9216 	 4.0646 	 3.8000
  0.2000 	 1.0000 	 8.4707 	 11.9917 	 2.8424 	 33.8862 	 2.8669 	 37.8710 	 80.9753 	 3.9848 	 3.9000
  0.2000 	 1.0000 	 8.4174 	 12.1836 	 2.8985 	 33.5197 	 2.9229 	 37.4278 	 81.0266 	 3.9081 	 4.0000
  0.2000 	 1.0000 	 8.3641 	 12.3749 	 2.9545 	 33.1601 	 2.9789 	 36.9946 	 81.0757 	 3.8345 	 4.1000
  0.2000 	 1.0000 	 8.3108 	 12.5658 	 3.0103 	 32.8070 	 3.0347 	 36.5707 	 81.1227 	 3.7637 	 4.2000
  0.2000 	 1.0000 	 8.2576 	 12.7562 	 3.0661 	 32.4602 	 3.0904 	 36.1558 	 81.1677 	 3.6956 	 4.3000
  0.2000 	 1.0000 	 8.2043 	 12.9464 	 3.1218 	 32.1195 	 3.1461 	 35.7496 	 81.2109 	 3.6300 	 4.4000
  0.2000 	 1.0000 	 8.1510 	 13.1362 	 3.1774 	 31.7847 	 3.2016 	 35.3516 	 81.2523 	 3.5668 	 4.5000
  0.2000 	 1.1000 	 8.3690 	 12.9632 	 2.9494 	 34.7183 	 3.0418 	 38.1116 	 60.7934 	 3.3933 	 4.5000
  0.3000 	 1.0000 	 8.8970 	 10.4274 	 2.3617 	 34.7415 	 2.4143 	 41.8328 	 76.3756 	 7.0913 	 3.1000
  0.3000 	 1.0000 	 8.8437 	 10.6267 	 2.4190 	 34.3654 	 2.4714 	 41.2914 	 76.4889 	 6.9260 	 3.2000
  0.3000 	 1.0000 	 8.7904 	 10.8247 	 2.4761 	 33.9959 	 2.5283 	 40.7645 	 76.5962 	 6.7686 	 3.3000
  0.3000 	 1.0000 	 8.7372 	 11.0215 	 2.5330 	 33.6328 	 2.5851 	 40.2514 	 76.6978 	 6.6187 	 3.4000
  0.3000 	 1.0000 	 8.6839 	 11.2173 	 2.5897 	 33.2760 	 2.6417 	 39.7515 	 76.7943 	 6.4756 	 3.5000
  0.3000 	 1.0000 	 8.6306 	 11.4121 	 2.6463 	 32.9253 	 2.6982 	 39.2641 	 76.8861 	 6.3389 	 3.6000
  0.3000 	 1.0000 	 8.5773 	 11.6061 	 2.7028 	 32.5805 	 2.7546 	 38.7886 	 76.9734 	 6.2081 	 3.7000
  0.3000 	 1.0000 	 8.5240 	 11.7993 	 2.7591 	 32.2415 	 2.8108 	 38.3244 	 77.0567 	 6.0829 	 3.8000
  0.3000 	 1.0000 	 8.4707 	 11.9917 	 2.8154 	 31.9081 	 2.8669 	 37.8710 	 77.1361 	 5.9628 	 3.9000
  0.3000 	 1.1000 	 8.6596 	 11.8597 	 2.6155 	 34.7130 	 2.7331 	 40.6301 	 63.9939 	 5.9171 	 3.9000
  0.3000 	 1.0000 	 8.4174 	 12.1836 	 2.8715 	 31.5802 	 2.9229 	 37.4278 	 77.2120 	 5.8477 	 4.0000
  0.3000 	 1.1000 	 8.6112 	 12.0452 	 2.6669 	 34.3858 	 2.7848 	 40.1880 	 63.9853 	 5.8022 	 4.0000
  0.3000 	 1.0000 	 8.3641 	 12.3749 	 2.9275 	 31.2575 	 2.9789 	 36.9946 	 77.2846 	 5.7371 	 4.1000
  0.3000 	 1.1000 	 8.5628 	 12.2300 	 2.7182 	 34.0635 	 2.8364 	 39.7553 	 63.9758 	 5.6918 	 4.1000
  0.3000 	 1.0000 	 8.3108 	 12.5658 	 2.9834 	 30.9399 	 3.0347 	 36.5707 	 77.3541 	 5.6307 	 4.2000
  0.3000 	 1.1000 	 8.5143 	 12.4141 	 2.7694 	 33.7459 	 2.8879 	 39.3317 	 63.9656 	 5.5858 	 4.2000
  0.3000 	 1.0000 	 8.2576 	 12.7562 	 3.0392 	 30.6274 	 3.0904 	 36.1558 	 77.4207 	 5.5284 	 4.3000
  0.3000 	 1.1000 	 8.4659 	 12.5977 	 2.8205 	 33.4330 	 2.9393 	 38.9168 	 63.9548 	 5.4837 	 4.3000
  0.3000 	 1.0000 	 8.2043 	 12.9464 	 3.0950 	 30.3196 	 3.1461 	 35.7496 	 77.4846 	 5.4299 	 4.4000
  0.3000 	 1.1000 	 8.4174 	 12.7807 	 2.8715 	 33.1247 	 2.9906 	 38.5102 	 63.9434 	 5.3855 	 4.4000
  0.3000 	 1.0000 	 8.1510 	 13.1362 	 3.1506 	 30.0165 	 3.2016 	 35.3516 	 77.5459 	 5.3350 	 4.5000
  0.3000 	 1.1000 	 8.3690 	 12.9632 	 2.9224 	 32.8207 	 3.0418 	 38.1116 	 63.9315 	 5.2909 	 4.5000
  0.4000 	 1.0000 	 9.0036 	 10.0245 	 2.2088 	 33.0471 	 2.2996 	 42.9630 	 71.9714 	 9.9158 	 2.9000
  0.4000 	 1.0000 	 8.9503 	 10.2267 	 2.2666 	 32.7198 	 2.3571 	 42.3897 	 72.1404 	 9.6699 	 3.0000
  0.4000 	 1.0000 	 8.8970 	 10.4274 	 2.3242 	 32.3962 	 2.4143 	 41.8328 	 72.2997 	 9.4366 	 3.1000
  0.4000 	 1.0000 	 8.8437 	 10.6267 	 2.3815 	 32.0763 	 2.4714 	 41.2914 	 72.4503 	 9.2151 	 3.2000
  0.4000 	 1.1000 	 8.9988 	 10.5345 	 2.2141 	 34.7702 	 2.3671 	 44.0296 	 62.9534 	 9.2594 	 3.2000
  0.4000 	 1.0000 	 8.7904 	 10.8247 	 2.4387 	 31.7602 	 2.5283 	 40.7645 	 72.5927 	 9.0043 	 3.3000
  0.4000 	 1.1000 	 8.9503 	 10.7273 	 2.2666 	 34.4592 	 2.4199 	 43.5075 	 63.0191 	 9.0483 	 3.3000
  0.4000 	 1.0000 	 8.7372 	 11.0215 	 2.4957 	 31.4480 	 2.5851 	 40.2514 	 72.7277 	 8.8035 	 3.4000
  0.4000 	 1.1000 	 8.9019 	 10.9188 	 2.3189 	 34.1513 	 2.4725 	 42.9986 	 63.0799 	 8.8472 	 3.4000
  0.4000 	 1.0000 	 8.6839 	 11.2173 	 2.5526 	 31.1397 	 2.6417 	 39.7515 	 72.8558 	 8.6119 	 3.5000
  0.4000 	 1.1000 	 8.8534 	 11.1090 	 2.3711 	 33.8467 	 2.5249 	 42.5021 	 63.1363 	 8.6554 	 3.5000
  0.4000 	 1.0000 	 8.6306 	 11.4121 	 2.6093 	 30.8352 	 2.6982 	 39.2641 	 72.9776 	 8.4289 	 3.6000
  0.4000 	 1.1000 	 8.8050 	 11.2982 	 2.4232 	 33.5455 	 2.5771 	 42.0176 	 63.1886 	 8.4721 	 3.6000
  0.4000 	 1.0000 	 8.5773 	 11.6061 	 2.6659 	 30.5347 	 2.7546 	 38.7886 	 73.0936 	 8.2539 	 3.7000
  0.4000 	 1.1000 	 8.7565 	 11.4863 	 2.4750 	 33.2476 	 2.6292 	 41.5444 	 63.2371 	 8.2969 	 3.7000
  0.4000 	 1.0000 	 8.5240 	 11.7993 	 2.7223 	 30.2379 	 2.8108 	 38.3244 	 73.2040 	 8.0864 	 3.8000
  0.4000 	 1.1000 	 8.7081 	 11.6734 	 2.5268 	 32.9531 	 2.6812 	 41.0821 	 63.2823 	 8.1290 	 3.8000
  0.4000 	 1.0000 	 8.4707 	 11.9917 	 2.7786 	 29.9450 	 2.8669 	 37.8710 	 73.3094 	 7.9259 	 3.9000
  0.4000 	 1.1000 	 8.6596 	 11.8597 	 2.5784 	 32.6619 	 2.7331 	 40.6301 	 63.3244 	 7.9682 	 3.9000
  0.4000 	 1.0000 	 8.4174 	 12.1836 	 2.8348 	 29.6559 	 2.9229 	 37.4278 	 73.4101 	 7.7720 	 4.0000
  0.4000 	 1.1000 	 8.6112 	 12.0452 	 2.6299 	 32.3741 	 2.7848 	 40.1880 	 63.3637 	 7.8139 	 4.0000
  0.4000 	 1.0000 	 8.3641 	 12.3749 	 2.8909 	 29.3704 	 2.9789 	 36.9946 	 73.5064 	 7.6241 	 4.1000
  0.4000 	 1.1000 	 8.5628 	 12.2300 	 2.6813 	 32.0896 	 2.8364 	 39.7553 	 63.4003 	 7.6657 	 4.1000
  0.4000 	 1.2000 	 8.7283 	 12.1131 	 2.5052 	 34.9043 	 2.7231 	 42.2688 	 53.3993 	 7.3645 	 4.1000
  0.4000 	 1.0000 	 8.3108 	 12.5658 	 2.9468 	 29.0887 	 3.0347 	 36.5707 	 73.5985 	 7.4820 	 4.2000
  0.4000 	 1.1000 	 8.5143 	 12.4141 	 2.7325 	 31.8084 	 2.8879 	 39.3317 	 63.4345 	 7.5233 	 4.2000
  0.4000 	 1.2000 	 8.6839 	 12.2919 	 2.5526 	 34.6246 	 2.7710 	 41.8480 	 53.3600 	 7.2234 	 4.2000
  0.4000 	 1.0000 	 8.2576 	 12.7562 	 3.0027 	 28.8105 	 3.0904 	 36.1558 	 73.6868 	 7.3454 	 4.3000
  0.4000 	 1.1000 	 8.4659 	 12.5977 	 2.7837 	 31.5305 	 2.9393 	 38.9168 	 63.4665 	 7.3863 	 4.3000
  0.4000 	 1.2000 	 8.6395 	 12.4700 	 2.5999 	 34.3478 	 2.8189 	 41.4356 	 53.3203 	 7.0878 	 4.3000
  0.4000 	 1.0000 	 8.2043 	 12.9464 	 3.0585 	 28.5358 	 3.1461 	 35.7496 	 73.7715 	 7.2138 	 4.4000
  0.4000 	 1.1000 	 8.4174 	 12.7807 	 2.8348 	 31.2558 	 2.9906 	 38.5102 	 63.4965 	 7.2544 	 4.4000
  0.4000 	 1.2000 	 8.5951 	 12.6474 	 2.6470 	 34.0739 	 2.8667 	 41.0311 	 53.2802 	 6.9572 	 4.4000
  0.4000 	 1.0000 	 8.1510 	 13.1362 	 3.1142 	 28.2645 	 3.2016 	 35.3516 	 73.8528 	 7.0870 	 4.5000
  0.4000 	 1.1000 	 8.3690 	 12.9632 	 2.8858 	 30.9843 	 3.0418 	 38.1116 	 63.5246 	 7.1273 	 4.5000
  0.4000 	 1.2000 	 8.5506 	 12.8242 	 2.6941 	 33.8028 	 2.9143 	 40.6343 	 53.2399 	 6.8315 	 4.5000
  0.5000 	 1.0000 	 9.0036 	 10.0245 	 2.1619 	 30.5878 	 2.2996 	 42.9630 	 67.9143 	 12.3752 	 2.9000
  0.5000 	 1.1000 	 9.1441 	 9.9470 	 2.0078 	 33.1847 	 2.2077 	 45.6820 	 60.3361 	 12.4974 	 2.9000
  0.5000 	 1.0000 	 8.9503 	 10.2267 	 2.2198 	 30.3244 	 2.3571 	 42.3897 	 68.1258 	 12.0653 	 3.0000
  0.5000 	 1.1000 	 9.0957 	 10.1444 	 2.0611 	 32.9293 	 2.2610 	 45.1161 	 60.4822 	 12.1868 	 3.0000
  0.5000 	 1.0000 	 8.8970 	 10.4274 	 2.2776 	 30.0613 	 2.4143 	 41.8328 	 68.3252 	 11.7716 	 3.1000
  0.5000 	 1.1000 	 9.0472 	 10.3402 	 2.1142 	 32.6732 	 2.3142 	 44.5655 	 60.6185 	 11.8923 	 3.1000
  0.5000 	 1.0000 	 8.8437 	 10.6267 	 2.3351 	 29.7987 	 2.4714 	 41.2914 	 68.5134 	 11.4927 	 3.2000
  0.5000 	 1.1000 	 8.9988 	 10.5345 	 2.1671 	 32.4170 	 2.3671 	 44.0296 	 60.7457 	 11.6126 	 3.2000
  0.5000 	 1.0000 	 8.7904 	 10.8247 	 2.3924 	 29.5370 	 2.5283 	 40.7645 	 68.6914 	 11.2275 	 3.3000
  0.5000 	 1.1000 	 8.9503 	 10.7273 	 2.2198 	 32.1609 	 2.4199 	 43.5075 	 60.8647 	 11.3466 	 3.3000
  0.5000 	 1.2000 	 9.0835 	 10.6481 	 2.0744 	 34.8366 	 2.3340 	 45.9816 	 53.3159 	 11.1450 	 3.3000
  0.5000 	 1.0000 	 8.7372 	 11.0215 	 2.4496 	 29.2765 	 2.5851 	 40.2514 	 68.8601 	 10.9750 	 3.4000
  0.5000 	 1.1000 	 8.9019 	 10.9188 	 2.2723 	 31.9053 	 2.4725 	 42.9986 	 60.9762 	 11.0932 	 3.4000
  0.5000 	 1.2000 	 9.0391 	 10.8353 	 2.1231 	 34.5869 	 2.3832 	 45.4796 	 53.3595 	 10.8927 	 3.4000
  0.5000 	 1.0000 	 8.6839 	 11.2173 	 2.5066 	 29.0174 	 2.6417 	 39.7515 	 69.0202 	 10.7341 	 3.5000
  0.5000 	 1.1000 	 8.8534 	 11.1090 	 2.3247 	 31.6506 	 2.5249 	 42.5021 	 61.0809 	 10.8516 	 3.5000
  0.5000 	 1.2000 	 8.9947 	 11.0211 	 2.1715 	 34.3373 	 2.4322 	 44.9894 	 53.3980 	 10.6521 	 3.5000
  0.5000 	 1.0000 	 8.6306 	 11.4121 	 2.5634 	 28.7599 	 2.6982 	 39.2641 	 69.1722 	 10.5042 	 3.6000
  0.5000 	 1.1000 	 8.8050 	 11.2982 	 2.3768 	 31.3968 	 2.5771 	 42.0176 	 61.1793 	 10.6208 	 3.6000
  0.5000 	 1.2000 	 8.9503 	 11.2058 	 2.2198 	 34.0881 	 2.4811 	 44.5105 	 53.4320 	 10.4224 	 3.6000
  0.5000 	 1.0000 	 8.5773 	 11.6061 	 2.6201 	 28.5041 	 2.7546 	 38.7886 	 69.3169 	 10.2845 	 3.7000
  0.5000 	 1.1000 	 8.7565 	 11.4863 	 2.4288 	 31.1443 	 2.6292 	 41.5444 	 61.2720 	 10.4002 	 3.7000
  0.5000 	 1.2000 	 8.9059 	 11.3892 	 2.2680 	 33.8396 	 2.5298 	 44.0425 	 53.4619 	 10.2028 	 3.7000
  0.5000 	 1.0000 	 8.5240 	 11.7993 	 2.6766 	 28.2502 	 2.8108 	 38.3244 	 69.4548 	 10.0742 	 3.8000
  0.5000 	 1.1000 	 8.7081 	 11.6734 	 2.4807 	 30.8931 	 2.6812 	 41.0821 	 61.3594 	 10.1890 	 3.8000
  0.5000 	 1.2000 	 8.8615 	 11.5716 	 2.3159 	 33.5920 	 2.5783 	 43.5847 	 53.4882 	 9.9927 	 3.8000
  0.5000 	 1.0000 	 8.4707 	 11.9917 	 2.7330 	 27.9983 	 2.8669 	 37.8710 	 69.5862 	 9.8727 	 3.9000
  0.5000 	 1.1000 	 8.6596 	 11.8597 	 2.5324 	 30.6435 	 2.7331 	 40.6301 	 61.4420 	 9.9866 	 3.9000
  0.5000 	 1.2000 	 8.8171 	 11.7530 	 2.3638 	 33.3454 	 2.6267 	 43.1367 	 53.5111 	 9.7913 	 3.9000
  0.5000 	 1.0000 	 8.4174 	 12.1836 	 2.7893 	 27.7484 	 2.9229 	 37.4278 	 69.7118 	 9.6795 	 4.0000
  0.5000 	 1.1000 	 8.6112 	 12.0452 	 2.5840 	 30.3954 	 2.7848 	 40.1880 	 61.5200 	 9.7925 	 4.0000
  0.5000 	 1.2000 	 8.7727 	 11.9334 	 2.4115 	 33.1000 	 2.6749 	 42.6983 	 53.5310 	 9.5982 	 4.0000
  0.5000 	 1.0000 	 8.3641 	 12.3749 	 2.8455 	 27.5005 	 2.9789 	 36.9946 	 69.8318 	 9.4940 	 4.1000
  0.5000 	 1.1000 	 8.5628 	 12.2300 	 2.6355 	 30.1491 	 2.8364 	 39.7553 	 61.5939 	 9.6062 	 4.1000
  0.5000 	 1.2000 	 8.7283 	 12.1131 	 2.4591 	 32.8559 	 2.7231 	 42.2688 	 53.5481 	 9.4129 	 4.1000
  0.5000 	 1.0000 	 8.3108 	 12.5658 	 2.9015 	 27.2548 	 3.0347 	 36.5707 	 69.9467 	 9.3158 	 4.2000
  0.5000 	 1.1000 	 8.5143 	 12.4141 	 2.6869 	 29.9046 	 2.8879 	 39.3317 	 61.6639 	 9.4271 	 4.2000
  0.5000 	 1.2000 	 8.6839 	 12.2919 	 2.5066 	 32.6133 	 2.7710 	 41.8480 	 53.5628 	 9.2348 	 4.2000
  0.5000 	 1.0000 	 8.2576 	 12.7562 	 2.9575 	 27.0113 	 3.0904 	 36.1558 	 70.0567 	 9.1445 	 4.3000
  0.5000 	 1.1000 	 8.4659 	 12.5977 	 2.7381 	 29.6619 	 2.9393 	 38.9168 	 61.7303 	 9.2549 	 4.3000
  0.5000 	 1.2000 	 8.6395 	 12.4700 	 2.5539 	 32.3720 	 2.8189 	 41.4356 	 53.5752 	 9.0635 	 4.3000
  0.5000 	 1.0000 	 8.2043 	 12.9464 	 3.0133 	 26.7700 	 3.1461 	 35.7496 	 70.1623 	 8.9796 	 4.4000
  0.5000 	 1.1000 	 8.4174 	 12.7807 	 2.7893 	 29.4211 	 2.9906 	 38.5102 	 61.7934 	 9.0891 	 4.4000
  0.5000 	 1.2000 	 8.5951 	 12.6474 	 2.6012 	 32.1324 	 2.8667 	 41.0311 	 53.5855 	 8.8987 	 4.4000
  0.5000 	 1.3000 	 8.7454 	 12.5378 	 2.4408 	 34.9607 	 2.7664 	 43.3344 	 45.3082 	 8.3737 	 4.4000
  0.5000 	 1.0000 	 8.1510 	 13.1362 	 3.0691 	 26.5308 	 3.2016 	 35.3516 	 70.2635 	 8.8208 	 4.5000
  0.5000 	 1.1000 	 8.3690 	 12.9632 	 2.8404 	 29.1822 	 3.0418 	 38.1116 	 61.8534 	 8.9294 	 4.5000
  0.5000 	 1.2000 	 8.5506 	 12.8242 	 2.6483 	 31.8944 	 2.9143 	 40.6343 	 53.5940 	 8.7399 	 4.5000
  0.5000 	 1.3000 	 8.7044 	 12.7100 	 2.4847 	 34.7247 	 2.8112 	 42.9412 	 45.2502 	 8.2165 	 4.5000
  0.6000 	 1.0000 	 9.0036 	 10.0245 	 2.1067 	 28.1322 	 2.2996 	 42.9630 	 63.9927 	 14.8308 	 2.9000
  0.6000 	 1.1000 	 9.1441 	 9.9470 	 1.9519 	 30.6581 	 2.2077 	 45.6820 	 57.4902 	 15.0239 	 2.9000
  0.6000 	 1.2000 	 9.2612 	 9.8837 	 1.8211 	 33.2217 	 2.1351 	 48.1210 	 51.2996 	 14.8993 	 2.9000
  0.6000 	 1.0000 	 8.9503 	 10.2267 	 2.1649 	 27.9347 	 2.3571 	 42.3897 	 64.2476 	 14.4551 	 3.0000
  0.6000 	 1.1000 	 9.0957 	 10.1444 	 2.0055 	 30.4692 	 2.2610 	 45.1161 	 57.6936 	 14.6469 	 3.0000
  0.6000 	 1.2000 	 9.2168 	 10.0774 	 1.8710 	 33.0415 	 2.1851 	 47.5651 	 51.4435 	 14.5236 	 3.0000
  0.6000 	 1.0000 	 8.8970 	 10.4274 	 2.2229 	 27.7336 	 2.4143 	 41.8328 	 64.4876 	 14.0992 	 3.1000
  0.6000 	 1.1000 	 9.0472 	 10.3402 	 2.0589 	 30.2759 	 2.3142 	 44.5655 	 57.8838 	 14.2896 	 3.1000
  0.6000 	 1.2000 	 9.1724 	 10.2693 	 1.9205 	 32.8562 	 2.2350 	 47.0237 	 51.5759 	 14.1675 	 3.1000
  0.6000 	 1.0000 	 8.8437 	 10.6267 	 2.2806 	 27.5299 	 2.4714 	 41.2914 	 64.7141 	 13.7615 	 3.2000
  0.6000 	 1.1000 	 8.9988 	 10.5345 	 2.1120 	 30.0790 	 2.3671 	 44.0296 	 58.0621 	 13.9505 	 3.2000
  0.6000 	 1.2000 	 9.1279 	 10.4594 	 1.9698 	 32.6666 	 2.2846 	 46.4961 	 51.6978 	 13.8295 	 3.2000
  0.6000 	 1.0000 	 8.7904 	 10.8247 	 2.3381 	 27.3239 	 2.5283 	 40.7645 	 64.9282 	 13.4406 	 3.3000
  0.6000 	 1.1000 	 8.9503 	 10.7273 	 2.1649 	 29.8793 	 2.4199 	 43.5075 	 58.2294 	 13.6282 	 3.3000
  0.6000 	 1.2000 	 9.0835 	 10.6481 	 2.0189 	 32.4735 	 2.3340 	 45.9816 	 51.8102 	 13.5082 	 3.3000
  0.6000 	 1.0000 	 8.7372 	 11.0215 	 2.3955 	 27.1163 	 2.5851 	 40.2514 	 65.1310 	 13.1351 	 3.4000
  0.6000 	 1.1000 	 8.9019 	 10.9188 	 2.2176 	 29.6773 	 2.4725 	 42.9986 	 58.3869 	 13.3213 	 3.4000
  0.6000 	 1.2000 	 9.0391 	 10.8353 	 2.0678 	 32.2774 	 2.3832 	 45.4796 	 51.9142 	 13.2022 	 3.4000
  0.6000 	 1.3000 	 9.1553 	 10.7661 	 1.9395 	 34.9555 	 2.3114 	 47.7238 	 45.5948 	 12.7683 	 3.4000
  0.6000 	 1.0000 	 8.6839 	 11.2173 	 2.4526 	 26.9075 	 2.6417 	 39.7515 	 65.3232 	 12.8440 	 3.5000
  0.6000 	 1.1000 	 8.8534 	 11.1090 	 2.2701 	 29.4734 	 2.5249 	 42.5021 	 58.5352 	 13.0287 	 3.5000
  0.6000 	 1.2000 	 8.9947 	 11.0211 	 2.1164 	 32.0789 	 2.4322 	 44.9894 	 52.0104 	 12.9106 	 3.5000
  0.6000 	 1.3000 	 9.1143 	 10.9484 	 1.9849 	 34.7631 	 2.3576 	 47.2418 	 45.6291 	 12.4786 	 3.5000
  0.6000 	 1.0000 	 8.6306 	 11.4121 	 2.5096 	 26.6979 	 2.6982 	 39.2641 	 65.5059 	 12.5663 	 3.6000
  0.6000 	 1.1000 	 8.8050 	 11.2982 	 2.3225 	 29.2681 	 2.5771 	 42.0176 	 58.6752 	 12.7495 	 3.6000
  0.6000 	 1.2000 	 8.9503 	 11.2058 	 2.1649 	 31.8784 	 2.4811 	 44.5105 	 52.0996 	 12.6322 	 3.6000
  0.6000 	 1.3000 	 9.0733 	 11.1293 	 2.0302 	 34.5683 	 2.4037 	 46.7705 	 45.6576 	 12.2022 	 3.6000
  0.6000 	 1.0000 	 8.5773 	 11.6061 	 2.5664 	 26.4878 	 2.7546 	 38.7886 	 65.6796 	 12.3008 	 3.7000
  0.6000 	 1.1000 	 8.7565 	 11.4863 	 2.3746 	 29.0619 	 2.6292 	 41.5444 	 58.8075 	 12.4826 	 3.7000
  0.6000 	 1.2000 	 8.9059 	 11.3892 	 2.2132 	 31.6764 	 2.5298 	 44.0425 	 52.1823 	 12.3661 	 3.7000
  0.6000 	 1.3000 	 9.0323 	 11.3090 	 2.0753 	 34.3713 	 2.4496 	 46.3094 	 45.6809 	 11.9381 	 3.7000
  0.6000 	 1.0000 	 8.5240 	 11.7993 	 2.6230 	 26.2774 	 2.8108 	 38.3244 	 65.8450 	 12.0470 	 3.8000
  0.6000 	 1.1000 	 8.7081 	 11.6734 	 2.4266 	 28.8549 	 2.6812 	 41.0821 	 58.9327 	 12.2272 	 3.8000
  0.6000 	 1.2000 	 8.8615 	 11.5716 	 2.2614 	 31.4732 	 2.5783 	 43.5847 	 52.2592 	 12.1115 	 3.8000
  0.6000 	 1.3000 	 8.9913 	 11.4875 	 2.1202 	 34.1728 	 2.4953 	 45.8581 	 45.6995 	 11.6854 	 3.8000
  0.6000 	 1.0000 	 8.4707 	 11.9917 	 2.6796 	 26.0671 	 2.8669 	 37.8710 	 66.0027 	 11.8038 	 3.9000
  0.6000 	 1.1000 	 8.6596 	 11.8597 	 2.4785 	 28.6475 	 2.7331 	 40.6301 	 59.0513 	 11.9826 	 3.9000
  0.6000 	 1.2000 	 8.8171 	 11.7530 	 2.3094 	 31.2691 	 2.6267 	 43.1367 	 52.3307 	 11.8677 	 3.9000
  0.6000 	 1.3000 	 8.9503 	 11.6649 	 2.1649 	 33.9729 	 2.5408 	 45.4162 	 45.7139 	 11.4434 	 3.9000
  0.6000 	 1.0000 	 8.4174 	 12.1836 	 2.7360 	 25.8570 	 2.9229 	 37.4278 	 66.1533 	 11.5708 	 4.0000
  0.6000 	 1.1000 	 8.6112 	 12.0452 	 2.5302 	 28.4398 	 2.7848 	 40.1880 	 59.1639 	 11.7481 	 4.0000
  0.6000 	 1.2000 	 8.7727 	 11.9334 	 2.3573 	 31.0644 	 2.6749 	 42.6983 	 52.3972 	 11.6339 	 4.0000
  0.6000 	 1.3000 	 8.9093 	 11.8413 	 2.2095 	 33.7719 	 2.5862 	 44.9833 	 45.7245 	 11.2114 	 4.0000
  0.6000 	 1.0000 	 8.3641 	 12.3749 	 2.7923 	 25.6474 	 2.9789 	 36.9946 	 66.2971 	 11.3472 	 4.1000
  0.6000 	 1.1000 	 8.5628 	 12.2300 	 2.5819 	 28.2323 	 2.8364 	 39.7553 	 59.2709 	 11.5230 	 4.1000
  0.6000 	 1.2000 	 8.7283 	 12.1131 	 2.4050 	 30.8593 	 2.7231 	 42.2688 	 52.4593 	 11.4095 	 4.1000
  0.6000 	 1.3000 	 8.8683 	 12.0167 	 2.2540 	 33.5702 	 2.6315 	 44.5590 	 45.7317 	 10.9888 	 4.1000
  0.6000 	 1.0000 	 8.3108 	 12.5658 	 2.8484 	 25.4383 	 3.0347 	 36.5707 	 66.4348 	 11.1324 	 4.2000
  0.6000 	 1.1000 	 8.5143 	 12.4141 	 2.6333 	 28.0249 	 2.8879 	 39.3317 	 59.3726 	 11.3068 	 4.2000
  0.6000 	 1.2000 	 8.6839 	 12.2919 	 2.4526 	 30.6541 	 2.7710 	 41.8480 	 52.5172 	 11.1939 	 4.2000
  0.6000 	 1.3000 	 8.8273 	 12.1912 	 2.2983 	 33.3680 	 2.6766 	 44.1429 	 45.7357 	 10.7750 	 4.2000
  0.6000 	 1.0000 	 8.2576 	 12.7562 	 2.9045 	 25.2298 	 3.0904 	 36.1558 	 66.5666 	 10.9260 	 4.3000
  0.6000 	 1.1000 	 8.4659 	 12.5977 	 2.6847 	 27.8179 	 2.9393 	 38.9168 	 59.4695 	 11.0989 	 4.3000
  0.6000 	 1.2000 	 8.6395 	 12.4700 	 2.5001 	 30.4489 	 2.8189 	 41.4356 	 52.5712 	 10.9866 	 4.3000
  0.6000 	 1.3000 	 8.7863 	 12.3649 	 2.3425 	 33.1654 	 2.7216 	 43.7348 	 45.7369 	 10.5694 	 4.3000
  0.6000 	 1.0000 	 8.2043 	 12.9464 	 2.9604 	 25.0222 	 3.1461 	 35.7496 	 66.6930 	 10.7273 	 4.4000
  0.6000 	 1.1000 	 8.4174 	 12.7807 	 2.7360 	 27.6113 	 2.9906 	 38.5102 	 59.5618 	 10.8988 	 4.4000
  0.6000 	 1.2000 	 8.5951 	 12.6474 	 2.5475 	 30.2439 	 2.8667 	 41.0311 	 52.6217 	 10.7872 	 4.4000
  0.6000 	 1.3000 	 8.7454 	 12.5378 	 2.3866 	 32.9626 	 2.7664 	 43.3344 	 45.7356 	 10.3717 	 4.4000
  0.6000 	 1.0000 	 8.1510 	 13.1362 	 3.0163 	 24.8155 	 3.2016 	 35.3516 	 66.8142 	 10.5361 	 4.5000
  0.6000 	 1.1000 	 8.3690 	 12.9632 	 2.7871 	 27.4054 	 3.0418 	 38.1116 	 59.6500 	 10.7062 	 4.5000
  0.6000 	 1.2000 	 8.5506 	 12.8242 	 2.5947 	 30.0392 	 2.9143 	 40.6343 	 52.6689 	 10.5951 	 4.5000
  0.6000 	 1.3000 	 8.7044 	 12.7100 	 2.4306 	 32.7599 	 2.8112 	 42.9412 	 45.7320 	 10.1814 	 4.5000
  0.7000 	 1.0000 	 9.0036 	 10.0245 	 2.0443 	 25.6739 	 2.2996 	 42.9630 	 60.2197 	 17.2891 	 2.9000
  0.7000 	 1.1000 	 9.1441 	 9.9470 	 1.8886 	 28.1302 	 2.2077 	 45.6820 	 54.4536 	 17.5518 	 2.9000
  0.7000 	 1.2000 	 9.2612 	 9.8837 	 1.7569 	 30.6264 	 2.1351 	 48.1210 	 48.9838 	 17.4947 	 2.9000
  0.7000 	 1.3000 	 9.3602 	 9.8312 	 1.6438 	 33.1951 	 2.0768 	 50.3138 	 43.7264 	 17.1187 	 2.9000
  0.7000 	 1.0000 	 8.9503 	 10.2267 	 2.1028 	 25.5446 	 2.3571 	 42.3897 	 60.5189 	 16.8451 	 3.0000
  0.7000 	 1.1000 	 9.0957 	 10.1444 	 1.9426 	 28.0103 	 2.2610 	 45.1161 	 54.7121 	 17.1057 	 3.0000
  0.7000 	 1.2000 	 9.2168 	 10.0774 	 1.8071 	 30.5152 	 2.1851 	 47.5651 	 49.1953 	 17.0499 	 3.0000
  0.7000 	 1.3000 	 9.3192 	 10.0217 	 1.6908 	 33.0921 	 2.1242 	 49.7697 	 43.8842 	 16.6776 	 3.0000
  0.7000 	 1.0000 	 8.8970 	 10.4274 	 2.1610 	 25.4079 	 2.4143 	 41.8328 	 60.8004 	 16.4249 	 3.1000
  0.7000 	 1.1000 	 9.0472 	 10.3402 	 1.9962 	 27.8821 	 2.3142 	 44.5655 	 54.9542 	 16.6834 	 3.1000
  0.7000 	 1.2000 	 9.1724 	 10.2693 	 1.8570 	 30.3950 	 2.2350 	 47.0237 	 49.3914 	 16.6287 	 3.1000
  0.7000 	 1.3000 	 9.2783 	 10.2103 	 1.7376 	 32.9796 	 2.1714 	 49.2393 	 44.0276 	 16.2598 	 3.1000
  0.7000 	 1.0000 	 8.8437 	 10.6267 	 2.2190 	 25.2649 	 2.4714 	 41.2914 	 61.0660 	 16.0264 	 3.2000
  0.7000 	 1.1000 	 8.9988 	 10.5345 	 2.0496 	 27.7468 	 2.3671 	 44.0296 	 55.1813 	 16.2828 	 3.2000
  0.7000 	 1.2000 	 9.1279 	 10.4594 	 1.9066 	 30.2670 	 2.2846 	 46.4961 	 49.5736 	 16.2291 	 3.2000
  0.7000 	 1.3000 	 9.2373 	 10.3972 	 1.7840 	 32.8586 	 2.2183 	 48.7220 	 44.1580 	 15.8634 	 3.2000
  0.7000 	 1.0000 	 8.7904 	 10.8247 	 2.2767 	 25.1164 	 2.5283 	 40.7645 	 61.3168 	 15.6480 	 3.3000
  0.7000 	 1.1000 	 8.9503 	 10.7273 	 2.1028 	 27.6053 	 2.4199 	 43.5075 	 55.3949 	 15.9022 	 3.3000
  0.7000 	 1.2000 	 9.0835 	 10.6481 	 1.9560 	 30.1322 	 2.3340 	 45.9816 	 49.7433 	 15.8495 	 3.3000
  0.7000 	 1.3000 	 9.1963 	 10.5824 	 1.8302 	 32.7303 	 2.2649 	 48.2170 	 44.2769 	 15.4867 	 3.3000
  0.7000 	 1.0000 	 8.7372 	 11.0215 	 2.3343 	 24.9633 	 2.5851 	 40.2514 	 61.5542 	 15.2881 	 3.4000
  0.7000 	 1.1000 	 8.9019 	 10.9188 	 2.1557 	 27.4585 	 2.4725 	 42.9986 	 55.5960 	 15.5401 	 3.4000
  0.7000 	 1.2000 	 9.0391 	 10.8353 	 2.0052 	 29.9914 	 2.3832 	 45.4796 	 49.9015 	 15.4882 	 3.4000
  0.7000 	 1.3000 	 9.1553 	 10.7661 	 1.8761 	 32.5955 	 2.3114 	 47.7238 	 44.3852 	 15.1282 	 3.4000
  0.7000 	 1.0000 	 8.6839 	 11.2173 	 2.3916 	 24.8062 	 2.6417 	 39.7515 	 61.7792 	 14.9453 	 3.5000
  0.7000 	 1.1000 	 8.8534 	 11.1090 	 2.2085 	 27.3070 	 2.5249 	 42.5021 	 55.7857 	 15.1951 	 3.5000
  0.7000 	 1.2000 	 8.9947 	 11.0211 	 2.0541 	 29.8455 	 2.4322 	 44.9894 	 50.0494 	 15.1440 	 3.5000
  0.7000 	 1.3000 	 9.1143 	 10.9484 	 1.9219 	 32.4552 	 2.3576 	 47.2418 	 44.4841 	 14.7866 	 3.5000
  0.7000 	 1.0000 	 8.6306 	 11.4121 	 2.4488 	 24.6457 	 2.6982 	 39.2641 	 61.9928 	 14.6184 	 3.6000
  0.7000 	 1.1000 	 8.8050 	 11.2982 	 2.2610 	 27.1516 	 2.5771 	 42.0176 	 55.9650 	 14.8660 	 3.6000
  0.7000 	 1.2000 	 8.9503 	 11.2058 	 2.1028 	 29.6950 	 2.4811 	 44.5105 	 50.1878 	 14.8155 	 3.6000
  0.7000 	 1.3000 	 9.0733 	 11.1293 	 1.9674 	 32.3098 	 2.4037 	 46.7705 	 44.5743 	 14.4607 	 3.6000
  0.7000 	 1.0000 	 8.5773 	 11.6061 	 2.5058 	 24.4824 	 2.7546 	 38.7886 	 62.1959 	 14.3062 	 3.7000
  0.7000 	 1.1000 	 8.7565 	 11.4863 	 2.3134 	 26.9928 	 2.6292 	 41.5444 	 56.1346 	 14.5517 	 3.7000
  0.7000 	 1.2000 	 8.9059 	 11.3892 	 2.1513 	 29.5407 	 2.5298 	 44.0425 	 50.3175 	 14.5017 	 3.7000
  0.7000 	 1.3000 	 9.0323 	 11.3090 	 2.0127 	 32.1602 	 2.4496 	 46.3094 	 44.6568 	 14.1493 	 3.7000
  0.7000 	 1.4000 	 9.1406 	 11.2416 	 1.8925 	 34.8947 	 2.3840 	 48.3701 	 39.0505 	 13.4754 	 3.7000
  0.7000 	 1.0000 	 8.5240 	 11.7993 	 2.5626 	 24.3167 	 2.8108 	 38.3244 	 62.3891 	 14.0077 	 3.8000
  0.7000 	 1.1000 	 8.7081 	 11.6734 	 2.3656 	 26.8311 	 2.6812 	 41.0821 	 56.2954 	 14.2510 	 3.8000
  0.7000 	 1.2000 	 8.8615 	 11.5716 	 2.1997 	 29.3830 	 2.5783 	 43.5847 	 50.4392 	 14.2016 	 3.8000
  0.7000 	 1.3000 	 8.9913 	 11.4875 	 2.0578 	 32.0067 	 2.4953 	 45.8581 	 44.7322 	 13.8514 	 3.8000
  0.7000 	 1.4000 	 9.1026 	 11.4168 	 1.9349 	 34.7461 	 2.4274 	 47.9266 	 39.0704 	 13.1805 	 3.8000
  0.7000 	 1.0000 	 8.4707 	 11.9917 	 2.6193 	 24.1489 	 2.8669 	 37.8710 	 62.5733 	 13.7221 	 3.9000
  0.7000 	 1.1000 	 8.6596 	 11.8597 	 2.4176 	 26.6669 	 2.7331 	 40.6301 	 56.4480 	 13.9632 	 3.9000
  0.7000 	 1.2000 	 8.8171 	 11.7530 	 2.2479 	 29.2225 	 2.6267 	 43.1367 	 50.5536 	 13.9143 	 3.9000
  0.7000 	 1.3000 	 8.9503 	 11.6649 	 2.1028 	 31.8500 	 2.5408 	 45.4162 	 44.8011 	 13.5662 	 3.9000
  0.7000 	 1.4000 	 9.0645 	 11.5909 	 1.9771 	 34.5940 	 2.4706 	 47.4921 	 39.0846 	 12.8982 	 3.9000
  0.7000 	 1.0000 	 8.4174 	 12.1836 	 2.6758 	 23.9795 	 2.9229 	 37.4278 	 62.7491 	 13.4484 	 4.0000
  0.7000 	 1.1000 	 8.6112 	 12.0452 	 2.4695 	 26.5006 	 2.7848 	 40.1880 	 56.5930 	 13.6874 	 4.0000
  0.7000 	 1.2000 	 8.7727 	 11.9334 	 2.2959 	 29.0594 	 2.6749 	 42.6983 	 50.6613 	 13.6389 	 4.0000
  0.7000 	 1.3000 	 8.9093 	 11.8413 	 2.1476 	 31.6904 	 2.5862 	 44.9833 	 44.8641 	 13.2929 	 4.0000
  0.7000 	 1.4000 	 9.0264 	 11.7639 	 2.0192 	 34.4386 	 2.5136 	 47.0661 	 39.0936 	 12.6275 	 4.0000
  0.7000 	 1.0000 	 8.3641 	 12.3749 	 2.7322 	 23.8087 	 2.9789 	 36.9946 	 62.9170 	 13.1858 	 4.1000
  0.7000 	 1.1000 	 8.5628 	 12.2300 	 2.5213 	 26.3326 	 2.8364 	 39.7553 	 56.7309 	 13.4227 	 4.1000
  0.7000 	 1.2000 	 8.7283 	 12.1131 	 2.3439 	 28.8942 	 2.7231 	 42.2688 	 50.7627 	 13.3746 	 4.1000
  0.7000 	 1.3000 	 8.8683 	 12.0167 	 2.1923 	 31.5283 	 2.6315 	 44.5590 	 44.9218 	 13.0307 	 4.1000
  0.7000 	 1.4000 	 8.9884 	 11.9359 	 2.0611 	 34.2804 	 2.5565 	 46.6483 	 39.0980 	 12.3679 	 4.1000
  0.7000 	 1.0000 	 8.3108 	 12.5658 	 2.7885 	 23.6369 	 3.0347 	 36.5707 	 63.0775 	 12.9338 	 4.2000
  0.7000 	 1.1000 	 8.5143 	 12.4141 	 2.5729 	 26.1631 	 2.8879 	 39.3317 	 56.8623 	 13.1686 	 4.2000
  0.7000 	 1.2000 	 8.6839 	 12.2919 	 2.3916 	 28.7272 	 2.7710 	 41.8480 	 50.8584 	 13.1209 	 4.2000
  0.7000 	 1.3000 	 8.8273 	 12.1912 	 2.2368 	 31.3641 	 2.6766 	 44.1429 	 44.9745 	 12.7789 	 4.2000
  0.7000 	 1.4000 	 8.9503 	 12.1068 	 2.1028 	 34.1198 	 2.5992 	 46.2384 	 39.0981 	 12.1186 	 4.2000
  0.7000 	 1.0000 	 8.2576 	 12.7562 	 2.8447 	 23.4642 	 3.0904 	 36.1558 	 63.2313 	 12.6916 	 4.3000
  0.7000 	 1.1000 	 8.4659 	 12.5977 	 2.6244 	 25.9924 	 2.9393 	 38.9168 	 56.9876 	 12.9244 	 4.3000
  0.7000 	 1.2000 	 8.6395 	 12.4700 	 2.4393 	 28.5586 	 2.8189 	 41.4356 	 50.9488 	 12.8769 	 4.3000
  0.7000 	 1.3000 	 8.7863 	 12.3649 	 2.2812 	 31.1980 	 2.7216 	 43.7348 	 45.0226 	 12.5368 	 4.3000
  0.7000 	 1.4000 	 8.9123 	 12.2769 	 2.1444 	 33.9570 	 2.6418 	 45.8360 	 39.0945 	 11.8791 	 4.3000
  0.7000 	 1.0000 	 8.2043 	 12.9464 	 2.9007 	 23.2908 	 3.1461 	 35.7496 	 63.3786 	 12.4587 	 4.4000
  0.7000 	 1.1000 	 8.4174 	 12.7807 	 2.6758 	 25.8208 	 2.9906 	 38.5102 	 57.1072 	 12.6894 	 4.4000
  0.7000 	 1.2000 	 8.5951 	 12.6474 	 2.4868 	 28.3888 	 2.8667 	 41.0311 	 51.0343 	 12.6423 	 4.4000
  0.7000 	 1.3000 	 8.7454 	 12.5378 	 2.3254 	 31.0303 	 2.7664 	 43.3344 	 45.0666 	 12.3040 	 4.4000
  0.7000 	 1.4000 	 8.8742 	 12.4461 	 2.1859 	 33.7923 	 2.6842 	 45.4409 	 39.0874 	 11.6486 	 4.4000
  0.7000 	 1.0000 	 8.1510 	 13.1362 	 2.9567 	 23.1170 	 3.2016 	 35.3516 	 63.5198 	 12.2346 	 4.5000
  0.7000 	 1.1000 	 8.3690 	 12.9632 	 2.7271 	 25.6484 	 3.0418 	 38.1116 	 57.2214 	 12.4632 	 4.5000
  0.7000 	 1.2000 	 8.5506 	 12.8242 	 2.5342 	 28.2179 	 2.9143 	 40.6343 	 51.1152 	 12.4164 	 4.5000
  0.7000 	 1.3000 	 8.7044 	 12.7100 	 2.3696 	 30.8614 	 2.8112 	 42.9412 	 45.1067 	 12.0799 	 4.5000
  0.7000 	 1.4000 	 8.8361 	 12.6145 	 2.2273 	 33.6260 	 2.7265 	 45.0528 	 39.0772 	 11.4268 	 4.5000
  0.8000 	 1.0000 	 9.0036 	 10.0245 	 1.9755 	 23.2039 	 2.2996 	 42.9630 	 56.5960 	 19.7590 	 2.9000
  0.8000 	 1.1000 	 9.1441 	 9.9470 	 1.8187 	 25.5893 	 2.2077 	 45.6820 	 51.3538 	 20.0928 	 2.9000
  0.8000 	 1.2000 	 9.2612 	 9.8837 	 1.6859 	 28.0255 	 2.1351 	 48.1210 	 46.3920 	 20.0955 	 2.9000
  0.8000 	 1.3000 	 9.3602 	 9.8312 	 1.5716 	 30.5442 	 2.0768 	 50.3138 	 41.6412 	 19.7696 	 2.9000
  0.8000 	 1.4000 	 9.4451 	 9.7868 	 1.4718 	 33.1836 	 2.0294 	 52.2904 	 37.0286 	 19.1068 	 2.9000
  0.8000 	 1.0000 	 8.9503 	 10.2267 	 2.0343 	 23.1461 	 2.3571 	 42.3897 	 56.9409 	 19.2436 	 3.0000
  0.8000 	 1.1000 	 9.0957 	 10.1444 	 1.8731 	 25.5418 	 2.2610 	 45.1161 	 51.6672 	 19.5742 	 3.0000
  0.8000 	 1.2000 	 9.2168 	 10.0774 	 1.7366 	 27.9868 	 2.1851 	 47.5651 	 46.6686 	 19.5783 	 3.0000
  0.8000 	 1.3000 	 9.3192 	 10.0217 	 1.6191 	 30.5122 	 2.1242 	 49.7697 	 41.8761 	 19.2575 	 3.0000
  0.8000 	 1.4000 	 9.4071 	 9.9747 	 1.5168 	 33.1562 	 2.0746 	 51.7593 	 37.2166 	 18.6031 	 3.0000
  0.8000 	 1.0000 	 8.8970 	 10.4274 	 2.0929 	 23.0767 	 2.4143 	 41.8328 	 57.2652 	 18.7562 	 3.1000
  0.8000 	 1.1000 	 9.0472 	 10.3402 	 1.9271 	 25.4818 	 2.3142 	 44.5655 	 51.9606 	 19.0837 	 3.1000
  0.8000 	 1.2000 	 9.1724 	 10.2693 	 1.7869 	 27.9347 	 2.2350 	 47.0237 	 46.9259 	 19.0890 	 3.1000
  0.8000 	 1.3000 	 9.2783 	 10.2103 	 1.6664 	 30.4665 	 2.1714 	 49.2393 	 42.0921 	 18.7728 	 3.1000
  0.8000 	 1.4000 	 9.3690 	 10.1606 	 1.5613 	 33.1152 	 2.1195 	 51.2410 	 37.3859 	 18.1259 	 3.1000
  0.8000 	 1.0000 	 8.8437 	 10.6267 	 2.1511 	 22.9969 	 2.4714 	 41.2914 	 57.5708 	 18.2944 	 3.2000
  0.8000 	 1.1000 	 8.9988 	 10.5345 	 1.9809 	 25.4107 	 2.3671 	 44.0296 	 52.2361 	 18.6189 	 3.2000
  0.8000 	 1.2000 	 9.1279 	 10.4594 	 1.8369 	 27.8710 	 2.2846 	 46.4961 	 47.1657 	 18.6251 	 3.2000
  0.8000 	 1.3000 	 9.2373 	 10.3972 	 1.7132 	 30.4088 	 2.2183 	 48.7220 	 42.2912 	 18.3132 	 3.2000
  0.8000 	 1.4000 	 9.3310 	 10.3447 	 1.6056 	 33.0620 	 2.1642 	 50.7351 	 37.5385 	 17.6731 	 3.2000
  0.8000 	 1.0000 	 8.7904 	 10.8247 	 2.2092 	 22.9082 	 2.5283 	 40.7645 	 57.8593 	 17.8563 	 3.3000
  0.8000 	 1.1000 	 8.9503 	 10.7273 	 2.0343 	 25.3298 	 2.4199 	 43.5075 	 52.4950 	 18.1777 	 3.3000
  0.8000 	 1.2000 	 9.0835 	 10.6481 	 1.8866 	 27.7969 	 2.3340 	 45.9816 	 47.3898 	 18.1847 	 3.3000
  0.8000 	 1.3000 	 9.1963 	 10.5824 	 1.7598 	 30.3403 	 2.2649 	 48.2170 	 42.4750 	 17.8767 	 3.3000
  0.8000 	 1.4000 	 9.2929 	 10.5271 	 1.6495 	 32.9979 	 2.2086 	 50.2408 	 37.6762 	 17.2429 	 3.3000
  0.8000 	 1.0000 	 8.7372 	 11.0215 	 2.2669 	 22.8116 	 2.5851 	 40.2514 	 58.1321 	 17.4399 	 3.4000
  0.8000 	 1.1000 	 8.9019 	 10.9188 	 2.0876 	 25.2404 	 2.4725 	 42.9986 	 52.7390 	 17.7582 	 3.4000
  0.8000 	 1.2000 	 9.0391 	 10.8353 	 1.9361 	 27.7137 	 2.3832 	 45.4796 	 47.5995 	 17.7659 	 3.4000
  0.8000 	 1.3000 	 9.1553 	 10.7661 	 1.8062 	 30.2623 	 2.3114 	 47.7238 	 42.6450 	 17.4615 	 3.4000
  0.8000 	 1.4000 	 9.2548 	 10.7079 	 1.6932 	 32.9242 	 2.2527 	 49.7577 	 37.8005 	 16.8335 	 3.4000
  0.8000 	 1.0000 	 8.6839 	 11.2173 	 2.3245 	 22.7080 	 2.6417 	 39.7515 	 58.3905 	 17.0436 	 3.5000
  0.8000 	 1.1000 	 8.8534 	 11.1090 	 2.1406 	 25.1433 	 2.5249 	 42.5021 	 52.9693 	 17.3589 	 3.5000
  0.8000 	 1.2000 	 8.9947 	 11.0211 	 1.9853 	 27.6223 	 2.4322 	 44.9894 	 47.7961 	 17.3671 	 3.5000
  0.8000 	 1.3000 	 9.1143 	 10.9484 	 1.8522 	 30.1758 	 2.3576 	 47.2418 	 42.8024 	 17.0660 	 3.5000
  0.8000 	 1.4000 	 9.2168 	 10.8872 	 1.7366 	 32.8418 	 2.2967 	 49.2852 	 37.9126 	 16.4434 	 3.5000
  0.8000 	 1.0000 	 8.6306 	 11.4121 	 2.3819 	 22.5983 	 2.6982 	 39.2641 	 58.6356 	 16.6659 	 3.6000
  0.8000 	 1.1000 	 8.8050 	 11.2982 	 2.1934 	 25.0395 	 2.5771 	 42.0176 	 53.1869 	 16.9781 	 3.6000
  0.8000 	 1.2000 	 8.9503 	 11.2058 	 2.0343 	 27.5237 	 2.4811 	 44.5105 	 47.9807 	 16.9868 	 3.6000
  0.8000 	 1.3000 	 9.0733 	 11.1293 	 1.8981 	 30.0817 	 2.4037 	 46.7705 	 42.9485 	 16.6888 	 3.6000
  0.8000 	 1.4000 	 9.1787 	 11.0650 	 1.7797 	 32.7516 	 2.3405 	 48.8228 	 38.0138 	 16.0712 	 3.6000
  0.8000 	 1.0000 	 8.5773 	 11.6061 	 2.4391 	 22.4832 	 2.7546 	 38.7886 	 58.8684 	 16.3054 	 3.7000
  0.8000 	 1.1000 	 8.7565 	 11.4863 	 2.2460 	 24.9298 	 2.6292 	 41.5444 	 53.3930 	 16.6147 	 3.7000
  0.8000 	 1.2000 	 8.9059 	 11.3892 	 2.0831 	 27.4187 	 2.5298 	 44.0425 	 48.1544 	 16.6238 	 3.7000
  0.8000 	 1.3000 	 9.0323 	 11.3090 	 1.9437 	 29.9808 	 2.4496 	 46.3094 	 43.0842 	 16.3286 	 3.7000
  0.8000 	 1.4000 	 9.1406 	 11.2416 	 1.8226 	 32.6544 	 2.3840 	 48.3701 	 38.1051 	 15.7156 	 3.7000
  0.8000 	 1.0000 	 8.5240 	 11.7993 	 2.4961 	 22.3634 	 2.8108 	 38.3244 	 59.0900 	 15.9610 	 3.8000
  0.8000 	 1.1000 	 8.7081 	 11.6734 	 2.2984 	 24.8148 	 2.6812 	 41.0821 	 53.5883 	 16.2673 	 3.8000
  0.8000 	 1.2000 	 8.8615 	 11.5716 	 2.1317 	 27.3080 	 2.5783 	 43.5847 	 48.3180 	 16.2767 	 3.8000
  0.8000 	 1.3000 	 8.9913 	 11.4875 	 1.9891 	 29.8739 	 2.4953 	 45.8581 	 43.2104 	 15.9842 	 3.8000
  0.8000 	 1.4000 	 9.1026 	 11.4168 	 1.8653 	 32.5510 	 2.4274 	 47.9266 	 38.1874 	 15.3756 	 3.8000
  0.8000 	 1.0000 	 8.4707 	 11.9917 	 2.5529 	 22.2394 	 2.8669 	 37.8710 	 59.3010 	 15.6316 	 3.9000
  0.8000 	 1.1000 	 8.6596 	 11.8597 	 2.3506 	 24.6951 	 2.7331 	 40.6301 	 53.7738 	 15.9350 	 3.9000
  0.8000 	 1.2000 	 8.8171 	 11.7530 	 2.1802 	 27.1922 	 2.6267 	 43.1367 	 48.4724 	 15.9445 	 3.9000
  0.8000 	 1.3000 	 8.9503 	 11.6649 	 2.0343 	 29.7617 	 2.5408 	 45.4162 	 43.3280 	 15.6546 	 3.9000
  0.8000 	 1.4000 	 9.0645 	 11.5909 	 1.9079 	 32.4420 	 2.4706 	 47.4921 	 38.2615 	 15.0501 	 3.9000
  0.8000 	 1.0000 	 8.4174 	 12.1836 	 2.6096 	 22.1117 	 2.9229 	 37.4278 	 59.5022 	 15.3161 	 4.0000
  0.8000 	 1.1000 	 8.6112 	 12.0452 	 2.4027 	 24.5714 	 2.7848 	 40.1880 	 53.9501 	 15.6166 	 4.0000
  0.8000 	 1.2000 	 8.7727 	 11.9334 	 2.2284 	 27.0720 	 2.6749 	 42.6983 	 48.6182 	 15.6263 	 4.0000
  0.8000 	 1.3000 	 8.9093 	 11.8413 	 2.0794 	 29.6446 	 2.5862 	 44.9833 	 43.4376 	 15.3387 	 4.0000
  0.8000 	 1.4000 	 9.0264 	 11.7639 	 1.9502 	 32.3279 	 2.5136 	 47.0661 	 38.3282 	 14.7382 	 4.0000
  0.8000 	 1.0000 	 8.3641 	 12.3749 	 2.6662 	 21.9809 	 2.9789 	 36.9946 	 59.6944 	 15.0137 	 4.1000
  0.8000 	 1.1000 	 8.5628 	 12.2300 	 2.4546 	 24.4440 	 2.8364 	 39.7553 	 54.1179 	 15.3113 	 4.1000
  0.8000 	 1.2000 	 8.7283 	 12.1131 	 2.2766 	 26.9477 	 2.7231 	 42.2688 	 48.7561 	 15.3211 	 4.1000
  0.8000 	 1.3000 	 8.8683 	 12.0167 	 2.1243 	 29.5232 	 2.6315 	 44.5590 	 43.5399 	 15.0358 	 4.1000
  0.8000 	 1.4000 	 8.9884 	 11.9359 	 1.9923 	 32.2094 	 2.5565 	 46.6483 	 38.3880 	 14.4390 	 4.1000
  0.8000 	 1.0000 	 8.3108 	 12.5658 	 2.7226 	 21.8472 	 3.0347 	 36.5707 	 59.8781 	 14.7235 	 4.2000
  0.8000 	 1.1000 	 8.5143 	 12.4141 	 2.5064 	 24.3134 	 2.8879 	 39.3317 	 54.2778 	 15.0183 	 4.2000
  0.8000 	 1.2000 	 8.6839 	 12.2919 	 2.3245 	 26.8199 	 2.7710 	 41.8480 	 48.8868 	 15.0281 	 4.2000
  0.8000 	 1.3000 	 8.8273 	 12.1912 	 2.1690 	 29.3979 	 2.6766 	 44.1429 	 43.6355 	 14.7450 	 4.2000
  0.8000 	 1.4000 	 8.9503 	 12.1068 	 2.0343 	 32.0867 	 2.5992 	 46.2384 	 38.4417 	 14.1517 	 4.2000
  0.8000 	 1.5000 	 9.0569 	 12.0351 	 1.9163 	 34.9414 	 2.5350 	 48.1546 	 33.1981 	 13.2132 	 4.2000
  0.8000 	 1.0000 	 8.2576 	 12.7562 	 2.7789 	 21.7110 	 3.0904 	 36.1558 	 60.0539 	 14.4448 	 4.3000
  0.8000 	 1.1000 	 8.4659 	 12.5977 	 2.5581 	 24.1799 	 2.9393 	 38.9168 	 54.4304 	 14.7369 	 4.3000
  0.8000 	 1.2000 	 8.6395 	 12.4700 	 2.3723 	 26.6889 	 2.8189 	 41.4356 	 49.0107 	 14.7466 	 4.3000
  0.8000 	 1.3000 	 8.7863 	 12.3649 	 2.2136 	 29.2692 	 2.7216 	 43.7348 	 43.7248 	 14.4656 	 4.3000
  0.8000 	 1.4000 	 8.9123 	 12.2769 	 2.0762 	 31.9604 	 2.6418 	 45.8360 	 38.4897 	 13.8756 	 4.3000
  0.8000 	 1.5000 	 9.0214 	 12.2021 	 1.9558 	 34.8181 	 2.5756 	 47.7590 	 33.1953 	 12.9409 	 4.3000
  0.8000 	 1.0000 	 8.2043 	 12.9464 	 2.8351 	 21.5726 	 3.1461 	 35.7496 	 60.2223 	 14.1769 	 4.4000
  0.8000 	 1.1000 	 8.4174 	 12.7807 	 2.6096 	 24.0440 	 2.9906 	 38.5102 	 54.5761 	 14.4662 	 4.4000
  0.8000 	 1.2000 	 8.5951 	 12.6474 	 2.4200 	 26.5552 	 2.8667 	 41.0311 	 49.1282 	 14.4759 	 4.4000
  0.8000 	 1.3000 	 8.7454 	 12.5378 	 2.2581 	 29.1375 	 2.7664 	 43.3344 	 43.8085 	 14.1969 	 4.4000
  0.8000 	 1.4000 	 8.8742 	 12.4461 	 2.1179 	 31.8308 	 2.6842 	 45.4409 	 38.5325 	 13.6101 	 4.4000
  0.8000 	 1.5000 	 8.9858 	 12.3682 	 1.9951 	 34.6914 	 2.6160 	 47.3702 	 33.1877 	 12.6788 	 4.4000
  0.8000 	 1.0000 	 8.1510 	 13.1362 	 2.8912 	 21.4324 	 3.2016 	 35.3516 	 60.3837 	 13.9192 	 4.5000
  0.8000 	 1.1000 	 8.3690 	 12.9632 	 2.6611 	 23.9059 	 3.0418 	 38.1116 	 54.7154 	 14.2057 	 4.5000
  0.8000 	 1.2000 	 8.5506 	 12.8242 	 2.4676 	 26.4189 	 2.9143 	 40.6343 	 49.2400 	 14.2154 	 4.5000
  0.8000 	 1.3000 	 8.7044 	 12.7100 	 2.3024 	 29.0030 	 2.8112 	 42.9412 	 43.8869 	 13.9382 	 4.5000
  0.8000 	 1.4000 	 8.8361 	 12.6145 	 2.1594 	 31.6983 	 2.7265 	 45.0528 	 38.5705 	 13.3546 	 4.5000
  0.8000 	 1.5000 	 8.9503 	 12.5334 	 2.0343 	 34.5616 	 2.6563 	 46.9882 	 33.1757 	 12.4266 	 4.5000
  0.9000 	 1.0000 	 9.0036 	 10.0245 	 1.9010 	 20.7114 	 2.2996 	 42.9630 	 53.1149 	 22.2516 	 2.9000
  0.9000 	 1.1000 	 9.1441 	 9.9470 	 1.7429 	 23.0222 	 2.2077 	 45.6820 	 48.2532 	 22.6599 	 2.9000
  0.9000 	 1.2000 	 9.2612 	 9.8837 	 1.6087 	 25.4024 	 2.1351 	 48.1210 	 43.6572 	 22.7186 	 2.9000
  0.9000 	 1.3000 	 9.3602 	 9.8312 	 1.4929 	 27.8847 	 2.0768 	 50.3138 	 39.2651 	 22.4290 	 2.9000
  0.9000 	 1.4000 	 9.4451 	 9.7868 	 1.3916 	 30.5092 	 2.0294 	 52.2904 	 35.0129 	 21.7812 	 2.9000
  0.9000 	 1.5000 	 9.5187 	 9.7488 	 1.3019 	 33.3292 	 1.9903 	 54.0773 	 30.8287 	 20.7481 	 2.9000
  0.9000 	 1.0000 	 8.9503 	 10.2267 	 1.9602 	 20.7292 	 2.3571 	 42.3897 	 53.5074 	 21.6606 	 3.0000
  0.9000 	 1.1000 	 9.0957 	 10.1444 	 1.7978 	 23.0516 	 2.2610 	 45.1161 	 48.6225 	 22.0645 	 3.0000
  0.9000 	 1.2000 	 9.2168 	 10.0774 	 1.6600 	 25.4404 	 2.1851 	 47.5651 	 43.9989 	 22.1248 	 3.0000
  0.9000 	 1.3000 	 9.3192 	 10.0217 	 1.5411 	 27.9275 	 2.1242 	 49.7697 	 39.5757 	 21.8422 	 3.0000
  0.9000 	 1.4000 	 9.4071 	 9.9747 	 1.4373 	 30.5522 	 2.0746 	 51.7593 	 35.2892 	 21.2070 	 3.0000
  0.9000 	 1.5000 	 9.4832 	 9.9345 	 1.3455 	 33.3667 	 2.0337 	 53.5597 	 31.0672 	 20.1930 	 3.0000
  0.9000 	 1.0000 	 8.8970 	 10.4274 	 2.0192 	 20.7305 	 2.4143 	 41.8328 	 53.8761 	 21.1024 	 3.1000
  0.9000 	 1.1000 	 9.0472 	 10.3402 	 1.8522 	 23.0636 	 2.3142 	 44.5655 	 48.9681 	 21.5020 	 3.1000
  0.9000 	 1.2000 	 9.1724 	 10.2693 	 1.7108 	 25.4603 	 2.2350 	 47.0237 	 44.3170 	 21.5634 	 3.1000
  0.9000 	 1.3000 	 9.2783 	 10.2103 	 1.5889 	 27.9522 	 2.1714 	 49.2393 	 39.8626 	 21.2872 	 3.1000
  0.9000 	 1.4000 	 9.3690 	 10.1606 	 1.4826 	 30.5777 	 2.1195 	 51.2410 	 35.5414 	 20.6633 	 3.1000
  0.9000 	 1.5000 	 9.4477 	 10.1181 	 1.3886 	 33.3882 	 2.0768 	 53.0543 	 31.2807 	 19.6661 	 3.1000
  0.9000 	 1.0000 	 8.8437 	 10.6267 	 2.0778 	 20.7173 	 2.4714 	 41.2914 	 54.2231 	 20.5741 	 3.2000
  0.9000 	 1.1000 	 8.9988 	 10.5345 	 1.9064 	 23.0601 	 2.3671 	 44.0296 	 49.2923 	 20.9695 	 3.2000
  0.9000 	 1.2000 	 9.1279 	 10.4594 	 1.7613 	 25.4643 	 2.2846 	 46.4961 	 44.6139 	 21.0318 	 3.2000
  0.9000 	 1.3000 	 9.2373 	 10.3972 	 1.6364 	 27.9608 	 2.2183 	 48.7220 	 40.1283 	 20.7612 	 3.2000
  0.9000 	 1.4000 	 9.3310 	 10.3447 	 1.5274 	 30.5875 	 2.1642 	 50.7351 	 35.7720 	 20.1476 	 3.2000
  0.9000 	 1.5000 	 9.4122 	 10.2999 	 1.4313 	 33.3951 	 2.1195 	 52.5604 	 31.4720 	 19.1654 	 3.2000
  0.9000 	 1.0000 	 8.7904 	 10.8247 	 2.1361 	 20.6911 	 2.5283 	 40.7645 	 54.5503 	 20.0734 	 3.3000
  0.9000 	 1.1000 	 8.9503 	 10.7273 	 1.9602 	 23.0430 	 2.4199 	 43.5075 	 49.5971 	 20.4645 	 3.3000
  0.9000 	 1.2000 	 9.0835 	 10.6481 	 1.8114 	 25.4541 	 2.3340 	 45.9816 	 44.8916 	 20.5276 	 3.3000
  0.9000 	 1.3000 	 9.1963 	 10.5824 	 1.6835 	 27.9549 	 2.2649 	 48.2170 	 40.3748 	 20.2621 	 3.3000
  0.9000 	 1.4000 	 9.2929 	 10.5271 	 1.5719 	 30.5831 	 2.2086 	 50.2408 	 35.9832 	 19.6577 	 3.3000
  0.9000 	 1.5000 	 9.3766 	 10.4799 	 1.4735 	 33.3887 	 2.1620 	 52.0776 	 31.6434 	 18.6889 	 3.3000
  0.9000 	 1.0000 	 8.7372 	 11.0215 	 2.1942 	 20.6535 	 2.5851 	 40.2514 	 54.8595 	 19.5979 	 3.4000
  0.9000 	 1.1000 	 8.9019 	 10.9188 	 2.0138 	 23.0137 	 2.4725 	 42.9986 	 49.8841 	 19.9849 	 3.4000
  0.9000 	 1.2000 	 9.0391 	 10.8353 	 1.8613 	 25.4311 	 2.3832 	 45.4796 	 45.1517 	 20.0485 	 3.4000
  0.9000 	 1.3000 	 9.1553 	 10.7661 	 1.7302 	 27.9362 	 2.3114 	 47.7238 	 40.6039 	 19.7876 	 3.4000
  0.9000 	 1.4000 	 9.2548 	 10.7079 	 1.6161 	 30.5661 	 2.2527 	 49.7577 	 36.1771 	 19.1916 	 3.4000
  0.9000 	 1.5000 	 9.3411 	 10.6582 	 1.5155 	 33.3703 	 2.2043 	 51.6053 	 31.7971 	 18.2350 	 3.4000
  0.9000 	 1.0000 	 8.6839 	 11.2173 	 2.2520 	 20.6058 	 2.6417 	 39.7515 	 55.1522 	 19.1458 	 3.5000
  0.9000 	 1.1000 	 8.8534 	 11.1090 	 2.0671 	 22.9735 	 2.5249 	 42.5021 	 50.1549 	 19.5287 	 3.5000
  0.9000 	 1.2000 	 8.9947 	 11.0211 	 1.9109 	 25.3968 	 2.4322 	 44.9894 	 45.3960 	 19.5926 	 3.5000
  0.9000 	 1.3000 	 9.1143 	 10.9484 	 1.7767 	 27.9059 	 2.3576 	 47.2418 	 40.8173 	 19.3359 	 3.5000
  0.9000 	 1.4000 	 9.2168 	 10.8872 	 1.6600 	 30.5375 	 2.2967 	 49.2852 	 36.3552 	 18.7476 	 3.5000
  0.9000 	 1.5000 	 9.3056 	 10.8349 	 1.5571 	 33.3409 	 2.2464 	 51.1430 	 31.9348 	 17.8021 	 3.5000
  0.9000 	 1.0000 	 8.6306 	 11.4121 	 2.3097 	 20.5489 	 2.6982 	 39.2641 	 55.4296 	 18.7152 	 3.6000
  0.9000 	 1.1000 	 8.8050 	 11.2982 	 2.1202 	 22.9235 	 2.5771 	 42.0176 	 50.4108 	 19.0941 	 3.6000
  0.9000 	 1.2000 	 8.9503 	 11.2058 	 1.9602 	 25.3523 	 2.4811 	 44.5105 	 45.6257 	 19.1582 	 3.6000
  0.9000 	 1.3000 	 9.0733 	 11.1293 	 1.8230 	 27.8652 	 2.4037 	 46.7705 	 41.0164 	 18.9053 	 3.6000
  0.9000 	 1.4000 	 9.1787 	 11.0650 	 1.7035 	 30.4986 	 2.3405 	 48.8228 	 36.5191 	 18.3242 	 3.6000
  0.9000 	 1.5000 	 9.2701 	 11.0102 	 1.5985 	 33.3017 	 2.2882 	 50.6903 	 32.0582 	 17.3887 	 3.6000
  0.9000 	 1.0000 	 8.5773 	 11.6061 	 2.3671 	 20.4840 	 2.7546 	 38.7886 	 55.6929 	 18.3046 	 3.7000
  0.9000 	 1.1000 	 8.7565 	 11.4863 	 2.1731 	 22.8649 	 2.6292 	 41.5444 	 50.6530 	 18.6795 	 3.7000
  0.9000 	 1.2000 	 8.9059 	 11.3892 	 2.0094 	 25.2987 	 2.5298 	 44.0425 	 45.8421 	 18.7437 	 3.7000
  0.9000 	 1.3000 	 9.0323 	 11.3090 	 1.8689 	 27.8150 	 2.4496 	 46.3094 	 41.2024 	 18.4944 	 3.7000
  0.9000 	 1.4000 	 9.1406 	 11.2416 	 1.7469 	 30.4503 	 2.3840 	 48.3701 	 36.6701 	 17.9198 	 3.7000
  0.9000 	 1.5000 	 9.2345 	 11.1841 	 1.6395 	 33.2534 	 2.3298 	 50.2469 	 32.1685 	 16.9935 	 3.7000
  0.9000 	 1.0000 	 8.5240 	 11.7993 	 2.4243 	 20.4118 	 2.8108 	 38.3244 	 55.9433 	 17.9126 	 3.8000
  0.9000 	 1.1000 	 8.7081 	 11.6734 	 2.2258 	 22.7985 	 2.6812 	 41.0821 	 50.8827 	 18.2836 	 3.8000
  0.9000 	 1.2000 	 8.8615 	 11.5716 	 2.0583 	 25.2369 	 2.5783 	 43.5847 	 46.0463 	 18.3478 	 3.8000
  0.9000 	 1.3000 	 8.9913 	 11.4875 	 1.9147 	 27.7565 	 2.4953 	 45.8581 	 41.3766 	 18.1017 	 3.8000
  0.9000 	 1.4000 	 9.1026 	 11.4168 	 1.7900 	 30.3935 	 2.4274 	 47.9266 	 36.8094 	 17.5331 	 3.8000
  0.9000 	 1.5000 	 9.1990 	 11.3566 	 1.6803 	 33.1969 	 2.3712 	 49.8122 	 32.2671 	 16.6153 	 3.8000
  0.9000 	 1.0000 	 8.4707 	 11.9917 	 2.4814 	 20.3331 	 2.8669 	 37.8710 	 56.1816 	 17.5379 	 3.9000
  0.9000 	 1.1000 	 8.6596 	 11.8597 	 2.2783 	 22.7251 	 2.7331 	 40.6301 	 51.1007 	 17.9050 	 3.9000
  0.9000 	 1.2000 	 8.8171 	 11.7530 	 2.1070 	 25.1677 	 2.6267 	 43.1367 	 46.2392 	 17.9691 	 3.9000
  0.9000 	 1.3000 	 8.9503 	 11.6649 	 1.9602 	 27.6902 	 2.5408 	 45.4162 	 41.5398 	 17.7260 	 3.9000
  0.9000 	 1.4000 	 9.0645 	 11.5909 	 1.8328 	 30.3290 	 2.4706 	 47.4921 	 36.9380 	 17.1631 	 3.9000
  0.9000 	 1.5000 	 9.1635 	 11.5279 	 1.7209 	 33.1329 	 2.4124 	 49.3860 	 32.3550 	 16.2531 	 3.9000
  0.9000 	 1.0000 	 8.4174 	 12.1836 	 2.5383 	 20.2486 	 2.9229 	 37.4278 	 56.4088 	 17.1793 	 4.0000
  0.9000 	 1.1000 	 8.6112 	 12.0452 	 2.3306 	 22.6453 	 2.7848 	 40.1880 	 51.3080 	 17.5426 	 4.0000
  0.9000 	 1.2000 	 8.7727 	 11.9334 	 2.1555 	 25.0918 	 2.6749 	 42.6983 	 46.4217 	 17.6065 	 4.0000
  0.9000 	 1.3000 	 8.9093 	 11.8413 	 2.0056 	 27.6171 	 2.5862 	 44.9833 	 41.6929 	 17.3662 	 4.0000
  0.9000 	 1.4000 	 9.0264 	 11.7639 	 1.8755 	 30.2576 	 2.5136 	 47.0661 	 37.0567 	 16.8086 	 4.0000
  0.9000 	 1.5000 	 9.1279 	 11.6981 	 1.7613 	 33.0620 	 2.4534 	 48.9678 	 32.4333 	 15.9058 	 4.0000
  0.9000 	 1.0000 	 8.3641 	 12.3749 	 2.5950 	 20.1588 	 2.9789 	 36.9946 	 56.6256 	 16.8357 	 4.1000
  0.9000 	 1.1000 	 8.5628 	 12.2300 	 2.3827 	 22.5600 	 2.8364 	 39.7553 	 51.5053 	 17.1953 	 4.1000
  0.9000 	 1.2000 	 8.7283 	 12.1131 	 2.2038 	 25.0099 	 2.7231 	 42.2688 	 46.5947 	 17.2589 	 4.1000
  0.9000 	 1.3000 	 8.8683 	 12.0167 	 2.0508 	 27.5378 	 2.6315 	 44.5590 	 41.8369 	 17.0212 	 4.1000
  0.9000 	 1.4000 	 8.9884 	 11.9359 	 1.9180 	 30.1798 	 2.5565 	 46.6483 	 37.1665 	 16.4686 	 4.1000
  0.9000 	 1.5000 	 9.0924 	 11.8671 	 1.8014 	 32.9849 	 2.4943 	 48.5575 	 32.5026 	 15.5725 	 4.1000
  0.9000 	 1.0000 	 8.3108 	 12.5658 	 2.6516 	 20.0644 	 3.0347 	 36.5707 	 56.8327 	 16.5062 	 4.2000
  0.9000 	 1.1000 	 8.5143 	 12.4141 	 2.4347 	 22.4695 	 2.8879 	 39.3317 	 51.6932 	 16.8622 	 4.2000
  0.9000 	 1.2000 	 8.6839 	 12.2919 	 2.2520 	 24.9226 	 2.7710 	 41.8480 	 46.7587 	 16.9255 	 4.2000
  0.9000 	 1.3000 	 8.8273 	 12.1912 	 2.0958 	 27.4527 	 2.6766 	 44.1429 	 41.9723 	 16.6902 	 4.2000
  0.9000 	 1.4000 	 8.9503 	 12.1068 	 1.9602 	 30.0962 	 2.5992 	 46.2384 	 37.2681 	 16.1422 	 4.2000
  0.9000 	 1.5000 	 9.0569 	 12.0351 	 1.8414 	 32.9022 	 2.5350 	 48.1546 	 32.5640 	 15.2525 	 4.2000
  0.9000 	 1.0000 	 8.2576 	 12.7562 	 2.7081 	 19.9658 	 3.0904 	 36.1558 	 57.0308 	 16.1900 	 4.3000
  0.9000 	 1.1000 	 8.4659 	 12.5977 	 2.4865 	 22.3745 	 2.9393 	 38.9168 	 51.8726 	 16.5423 	 4.3000
  0.9000 	 1.2000 	 8.6395 	 12.4700 	 2.3001 	 24.8304 	 2.8189 	 41.4356 	 46.9146 	 16.6052 	 4.3000
  0.9000 	 1.3000 	 8.7863 	 12.3649 	 2.1406 	 27.3626 	 2.7216 	 43.7348 	 42.0998 	 16.3722 	 4.3000
  0.9000 	 1.4000 	 8.9123 	 12.2769 	 2.0024 	 30.0074 	 2.6418 	 45.8360 	 37.3622 	 15.8286 	 4.3000
  0.9000 	 1.5000 	 9.0214 	 12.2021 	 1.8812 	 32.8142 	 2.5756 	 47.7590 	 32.6179 	 14.9448 	 4.3000
  0.9000 	 1.0000 	 8.2043 	 12.9464 	 2.7644 	 19.8635 	 3.1461 	 35.7496 	 57.2205 	 15.8861 	 4.4000
  0.9000 	 1.1000 	 8.4174 	 12.7807 	 2.5383 	 22.2753 	 2.9906 	 38.5102 	 52.0439 	 16.2349 	 4.4000
  0.9000 	 1.2000 	 8.5951 	 12.6474 	 2.3480 	 24.7337 	 2.8667 	 41.0311 	 47.0627 	 16.2974 	 4.4000
  0.9000 	 1.3000 	 8.7454 	 12.5378 	 2.1853 	 27.2678 	 2.7664 	 43.3344 	 42.2201 	 16.0666 	 4.4000
  0.9000 	 1.4000 	 8.8742 	 12.4461 	 2.0443 	 29.9138 	 2.6842 	 45.4409 	 37.4492 	 15.5271 	 4.4000
  0.9000 	 1.5000 	 8.9858 	 12.3682 	 1.9208 	 32.7214 	 2.6160 	 47.3702 	 32.6651 	 14.6489 	 4.4000
  0.9000 	 1.0000 	 8.1510 	 13.1362 	 2.8206 	 19.7577 	 3.2016 	 35.3516 	 57.4023 	 15.5939 	 4.5000
  0.9000 	 1.1000 	 8.3690 	 12.9632 	 2.5898 	 22.1724 	 3.0418 	 38.1116 	 52.2077 	 15.9392 	 4.5000
  0.9000 	 1.2000 	 8.5506 	 12.8242 	 2.3957 	 24.6331 	 2.9143 	 40.6343 	 47.2038 	 16.0012 	 4.5000
  0.9000 	 1.3000 	 8.7044 	 12.7100 	 2.2298 	 27.1688 	 2.8112 	 42.9412 	 42.3336 	 15.7724 	 4.5000
  0.9000 	 1.4000 	 8.8361 	 12.6145 	 2.0861 	 29.8159 	 2.7265 	 45.0528 	 37.5299 	 15.2369 	 4.5000
  0.9000 	 1.5000 	 8.9503 	 12.5334 	 1.9602 	 32.6243 	 2.6563 	 46.9882 	 32.7061 	 14.3639 	 4.5000
  1.0000 	 1.0000 	 9.0036 	 10.0245 	 1.8214 	 18.1833 	 2.2996 	 42.9630 	 49.7649 	 24.7796 	 2.9000
  1.0000 	 1.1000 	 9.1441 	 9.9470 	 1.6618 	 20.4141 	 2.2077 	 45.6820 	 45.1808 	 25.2679 	 2.9000
  1.0000 	 1.2000 	 9.2612 	 9.8837 	 1.5259 	 22.7400 	 2.1351 	 48.1210 	 40.8482 	 25.3810 	 2.9000
  1.0000 	 1.3000 	 9.3602 	 9.8312 	 1.4083 	 25.1976 	 2.0768 	 50.3138 	 36.7095 	 25.1162 	 2.9000
  1.0000 	 1.4000 	 9.4451 	 9.7868 	 1.3050 	 27.8331 	 2.0294 	 52.2904 	 32.7043 	 24.4573 	 2.9000
  1.0000 	 1.5000 	 9.5187 	 9.7488 	 1.2132 	 30.7094 	 1.9903 	 54.0773 	 28.7648 	 23.3679 	 2.9000
  1.0000 	 1.6000 	 9.5831 	 9.7159 	 1.1308 	 33.9189 	 1.9578 	 55.6977 	 24.8053 	 21.7788 	 2.9000
  1.0000 	 1.0000 	 8.9503 	 10.2267 	 1.8811 	 18.2818 	 2.3571 	 42.3897 	 50.2073 	 24.1080 	 3.0000
  1.0000 	 1.1000 	 9.0957 	 10.1444 	 1.7172 	 20.5258 	 2.2610 	 45.1161 	 45.6081 	 24.5903 	 3.0000
  1.0000 	 1.2000 	 9.2168 	 10.0774 	 1.5778 	 22.8600 	 2.1851 	 47.5651 	 41.2570 	 24.7051 	 3.0000
  1.0000 	 1.3000 	 9.3192 	 10.0217 	 1.4573 	 25.3197 	 2.1242 	 49.7697 	 37.0976 	 24.4501 	 3.0000
  1.0000 	 1.4000 	 9.4071 	 9.9747 	 1.3516 	 27.9491 	 2.0746 	 51.7593 	 33.0703 	 23.8101 	 3.0000
  1.0000 	 1.5000 	 9.4832 	 9.9345 	 1.2579 	 30.8083 	 2.0337 	 53.5597 	 29.1079 	 22.7514 	 3.0000
  1.0000 	 1.6000 	 9.5498 	 9.8997 	 1.1737 	 33.9852 	 1.9996 	 55.1938 	 25.1257 	 21.2086 	 3.0000
  1.0000 	 1.0000 	 8.8970 	 10.4274 	 1.9405 	 18.3584 	 2.4143 	 41.8328 	 50.6224 	 23.4744 	 3.1000
  1.0000 	 1.1000 	 9.0472 	 10.3402 	 1.7722 	 20.6146 	 2.3142 	 44.5655 	 46.0077 	 23.9509 	 3.1000
  1.0000 	 1.2000 	 9.1724 	 10.2693 	 1.6293 	 22.9568 	 2.2350 	 47.0237 	 41.6376 	 24.0670 	 3.1000
  1.0000 	 1.3000 	 9.2783 	 10.2103 	 1.5058 	 25.4188 	 2.1714 	 49.2393 	 37.4565 	 23.8205 	 3.1000
  1.0000 	 1.4000 	 9.3690 	 10.1606 	 1.3977 	 28.0436 	 2.1195 	 51.2410 	 33.4058 	 23.1974 	 3.1000
  1.0000 	 1.5000 	 9.4477 	 10.1181 	 1.3019 	 30.8888 	 2.0768 	 53.0543 	 29.4187 	 22.1654 	 3.1000
  1.0000 	 1.6000 	 9.5165 	 10.0814 	 1.2161 	 34.0385 	 2.0411 	 54.7013 	 25.4109 	 20.6628 	 3.1000
  1.0000 	 1.0000 	 8.8437 	 10.6267 	 1.9995 	 18.4157 	 2.4714 	 41.2914 	 51.0125 	 22.8757 	 3.2000
  1.0000 	 1.1000 	 8.9988 	 10.5345 	 1.8268 	 20.6832 	 2.3671 	 44.0296 	 46.3821 	 23.3464 	 3.2000
  1.0000 	 1.2000 	 9.1279 	 10.4594 	 1.6803 	 23.0328 	 2.2846 	 46.4961 	 41.9926 	 23.4634 	 3.2000
  1.0000 	 1.3000 	 9.2373 	 10.3972 	 1.5539 	 25.4975 	 2.2183 	 48.7220 	 37.7893 	 23.2245 	 3.2000
  1.0000 	 1.4000 	 9.3310 	 10.3447 	 1.4433 	 28.1188 	 2.1642 	 50.7351 	 33.7142 	 22.6163 	 3.2000
  1.0000 	 1.5000 	 9.4122 	 10.2999 	 1.3455 	 30.9524 	 2.1195 	 52.5604 	 29.7008 	 21.6080 	 3.2000
  1.0000 	 1.6000 	 9.4832 	 10.2611 	 1.2579 	 34.0794 	 2.0823 	 54.2199 	 25.6651 	 20.1405 	 3.2000
  1.0000 	 1.0000 	 8.7904 	 10.8247 	 2.0582 	 18.4558 	 2.5283 	 40.7645 	 51.3801 	 22.3087 	 3.3000
  1.0000 	 1.1000 	 8.9503 	 10.7273 	 1.8811 	 20.7337 	 2.4199 	 43.5075 	 46.7338 	 22.7738 	 3.3000
  1.0000 	 1.2000 	 9.0835 	 10.6481 	 1.7310 	 23.0902 	 2.3340 	 45.9816 	 42.3246 	 22.8914 	 3.3000
  1.0000 	 1.3000 	 9.1963 	 10.5824 	 1.6016 	 25.5577 	 2.2649 	 48.2170 	 38.0986 	 22.6593 	 3.3000
  1.0000 	 1.4000 	 9.2929 	 10.5271 	 1.4885 	 28.1764 	 2.2086 	 50.2408 	 33.9983 	 22.0644 	 3.3000
  1.0000 	 1.5000 	 9.3766 	 10.4799 	 1.3885 	 31.0004 	 2.1620 	 52.0776 	 29.9575 	 21.0772 	 3.3000
  1.0000 	 1.6000 	 9.4499 	 10.4391 	 1.2992 	 34.1084 	 2.1232 	 53.7488 	 25.8918 	 19.6405 	 3.3000
  1.0000 	 1.0000 	 8.7372 	 11.0215 	 2.1167 	 18.4804 	 2.5851 	 40.2514 	 51.7271 	 21.7710 	 3.4000
  1.0000 	 1.1000 	 8.9019 	 10.9188 	 1.9351 	 20.7680 	 2.4725 	 42.9986 	 47.0648 	 22.2306 	 3.4000
  1.0000 	 1.2000 	 9.0391 	 10.8353 	 1.7813 	 23.1311 	 2.3832 	 45.4796 	 42.6357 	 22.3485 	 3.4000
  1.0000 	 1.3000 	 9.1553 	 10.7661 	 1.6489 	 25.6013 	 2.3114 	 47.7238 	 38.3867 	 22.1224 	 3.4000
  1.0000 	 1.4000 	 9.2548 	 10.7079 	 1.5333 	 28.2181 	 2.2527 	 49.7577 	 34.2606 	 21.5396 	 3.4000
  1.0000 	 1.5000 	 9.3411 	 10.6582 	 1.4312 	 31.0342 	 2.2043 	 51.6053 	 30.1913 	 20.5711 	 3.4000
  1.0000 	 1.6000 	 9.4166 	 10.6153 	 1.3400 	 34.1261 	 2.1639 	 53.2878 	 26.0942 	 19.1617 	 3.4000
  1.0000 	 1.0000 	 8.6839 	 11.2173 	 2.1748 	 18.4914 	 2.6417 	 39.7515 	 52.0551 	 21.2602 	 3.5000
  1.0000 	 1.1000 	 8.8534 	 11.1090 	 1.9888 	 20.7878 	 2.5249 	 42.5021 	 47.3769 	 21.7143 	 3.5000
  1.0000 	 1.2000 	 8.9947 	 11.0211 	 1.8314 	 23.1570 	 2.4322 	 44.9894 	 42.9279 	 21.8324 	 3.5000
  1.0000 	 1.3000 	 9.1143 	 10.9484 	 1.6959 	 25.6301 	 2.3576 	 47.2418 	 38.6556 	 21.6117 	 3.5000
  1.0000 	 1.4000 	 9.2168 	 10.8872 	 1.5778 	 28.2455 	 2.2967 	 49.2852 	 34.5032 	 21.0397 	 3.5000
  1.0000 	 1.5000 	 9.3056 	 10.8349 	 1.4735 	 31.0548 	 2.2464 	 51.1430 	 30.4046 	 20.0882 	 3.5000
  1.0000 	 1.6000 	 9.3833 	 10.7898 	 1.3805 	 34.1332 	 2.2043 	 52.8362 	 26.2747 	 18.7030 	 3.5000
  1.0000 	 1.0000 	 8.6306 	 11.4121 	 2.2328 	 18.4900 	 2.6982 	 39.2641 	 52.3658 	 20.7742 	 3.6000
  1.0000 	 1.1000 	 8.8050 	 11.2982 	 2.0423 	 20.7946 	 2.5771 	 42.0176 	 47.6717 	 21.2231 	 3.6000
  1.0000 	 1.2000 	 8.9503 	 11.2058 	 1.8811 	 23.1695 	 2.4811 	 44.5105 	 43.2027 	 21.3411 	 3.6000
  1.0000 	 1.3000 	 9.0733 	 11.1293 	 1.7426 	 25.6453 	 2.4037 	 46.7705 	 38.9070 	 21.1252 	 3.6000
  1.0000 	 1.4000 	 9.1787 	 11.0650 	 1.6219 	 28.2597 	 2.3405 	 48.8228 	 34.7281 	 20.5630 	 3.6000
  1.0000 	 1.5000 	 9.2701 	 11.0102 	 1.5155 	 31.0635 	 2.2882 	 50.6903 	 30.5995 	 19.6268 	 3.6000
  1.0000 	 1.6000 	 9.3500 	 10.9629 	 1.4206 	 34.1304 	 2.2445 	 52.3937 	 26.4356 	 18.2633 	 3.6000
  1.0000 	 1.0000 	 8.5773 	 11.6061 	 2.2904 	 18.4775 	 2.7546 	 38.7886 	 52.6605 	 20.3111 	 3.7000
  1.0000 	 1.1000 	 8.7565 	 11.4863 	 2.0955 	 20.7896 	 2.6292 	 41.5444 	 47.9506 	 20.7548 	 3.7000
  1.0000 	 1.2000 	 8.9059 	 11.3892 	 1.9306 	 23.1698 	 2.5298 	 44.0425 	 43.4617 	 20.8726 	 3.7000
  1.0000 	 1.3000 	 9.0323 	 11.3090 	 1.7891 	 25.6482 	 2.4496 	 46.3094 	 39.1426 	 20.6612 	 3.7000
  1.0000 	 1.4000 	 9.1406 	 11.2416 	 1.6658 	 28.2621 	 2.3840 	 48.3701 	 34.9367 	 20.1080 	 3.7000
  1.0000 	 1.5000 	 9.2345 	 11.1841 	 1.5571 	 31.0612 	 2.3298 	 50.2469 	 30.7778 	 19.1857 	 3.7000
  1.0000 	 1.6000 	 9.3167 	 11.1345 	 1.4603 	 34.1183 	 2.2844 	 51.9600 	 26.5789 	 17.8417 	 3.7000
  1.0000 	 1.0000 	 8.5240 	 11.7993 	 2.3479 	 18.4550 	 2.8108 	 38.3244 	 52.9404 	 19.8694 	 3.8000
  1.0000 	 1.1000 	 8.7081 	 11.6734 	 2.1484 	 20.7741 	 2.6812 	 41.0821 	 48.2149 	 20.3080 	 3.8000
  1.0000 	 1.2000 	 8.8615 	 11.5716 	 1.9799 	 23.1592 	 2.5783 	 43.5847 	 43.7062 	 20.4255 	 3.8000
  1.0000 	 1.3000 	 8.9913 	 11.4875 	 1.8352 	 25.6401 	 2.4953 	 45.8581 	 39.3635 	 20.2180 	 3.8000
  1.0000 	 1.4000 	 9.1026 	 11.4168 	 1.7093 	 28.2536 	 2.4274 	 47.9266 	 35.1307 	 19.6731 	 3.8000
  1.0000 	 1.5000 	 9.1990 	 11.3566 	 1.5984 	 31.0488 	 2.3712 	 49.8122 	 30.9409 	 18.7634 	 3.8000
  1.0000 	 1.6000 	 9.2834 	 11.3047 	 1.4998 	 34.0976 	 2.3242 	 51.5346 	 26.7064 	 17.4370 	 3.8000
  1.0000 	 1.0000 	 8.4707 	 11.9917 	 2.4052 	 18.4235 	 2.8669 	 37.8710 	 53.2067 	 19.4475 	 3.9000
  1.0000 	 1.1000 	 8.6596 	 11.8597 	 2.2012 	 20.7490 	 2.7331 	 40.6301 	 48.4657 	 19.8811 	 3.9000
  1.0000 	 1.2000 	 8.8171 	 11.7530 	 2.0289 	 23.1387 	 2.6267 	 43.1367 	 43.9373 	 19.9981 	 3.9000
  1.0000 	 1.3000 	 8.9503 	 11.6649 	 1.8811 	 25.6219 	 2.5408 	 45.4162 	 39.5712 	 19.7943 	 3.9000
  1.0000 	 1.4000 	 9.0645 	 11.5909 	 1.7526 	 28.2352 	 2.4706 	 47.4921 	 35.3112 	 19.2569 	 3.9000
  1.0000 	 1.5000 	 9.1635 	 11.5279 	 1.6395 	 31.0271 	 2.4124 	 49.3860 	 31.0903 	 18.3589 	 3.9000
  1.0000 	 1.6000 	 9.2501 	 11.4737 	 1.5389 	 34.0688 	 2.3637 	 51.1172 	 26.8195 	 17.0484 	 3.9000
  1.0000 	 1.0000 	 8.4174 	 12.1836 	 2.4623 	 18.3839 	 2.9229 	 37.4278 	 53.4604 	 19.0440 	 4.0000
  1.0000 	 1.1000 	 8.6112 	 12.0452 	 2.2538 	 20.7152 	 2.7848 	 40.1880 	 48.7040 	 19.4728 	 4.0000
  1.0000 	 1.2000 	 8.7727 	 11.9334 	 2.0778 	 23.1091 	 2.6749 	 42.6983 	 44.1560 	 19.5892 	 4.0000
  1.0000 	 1.3000 	 8.9093 	 11.8413 	 1.9268 	 25.5946 	 2.5862 	 44.9833 	 39.7666 	 19.3887 	 4.0000
  1.0000 	 1.4000 	 9.0264 	 11.7639 	 1.7957 	 28.2078 	 2.5136 	 47.0661 	 35.4795 	 18.8583 	 4.0000
  1.0000 	 1.5000 	 9.1279 	 11.6981 	 1.6803 	 30.9969 	 2.4534 	 48.9678 	 31.2272 	 17.9710 	 4.0000
  1.0000 	 1.6000 	 9.2168 	 11.6414 	 1.5778 	 34.0325 	 2.4031 	 50.7076 	 26.9195 	 16.6750 	 4.0000
  1.0000 	 1.0000 	 8.3641 	 12.3749 	 2.5193 	 18.3369 	 2.9789 	 36.9946 	 53.7024 	 18.6577 	 4.1000
  1.0000 	 1.1000 	 8.5628 	 12.2300 	 2.3061 	 20.6736 	 2.8364 	 39.7553 	 48.9308 	 19.0817 	 4.1000
  1.0000 	 1.2000 	 8.7283 	 12.1131 	 2.1264 	 23.0713 	 2.7231 	 42.2688 	 44.3634 	 19.1975 	 4.1000
  1.0000 	 1.3000 	 8.8683 	 12.0167 	 1.9723 	 25.5590 	 2.6315 	 44.5590 	 39.9507 	 19.0000 	 4.1000
  1.0000 	 1.4000 	 8.9884 	 11.9359 	 1.8385 	 28.1721 	 2.5565 	 46.6483 	 35.6365 	 18.4762 	 4.1000
  1.0000 	 1.5000 	 9.0924 	 11.8671 	 1.7209 	 30.9588 	 2.4943 	 48.5575 	 31.3527 	 17.5987 	 4.1000
  1.0000 	 1.6000 	 9.1835 	 11.8080 	 1.6164 	 33.9893 	 2.4423 	 50.3053 	 27.0078 	 16.3160 	 4.1000
  1.0000 	 1.0000 	 8.3108 	 12.5658 	 2.5761 	 18.2832 	 3.0347 	 36.5707 	 53.9334 	 18.2875 	 4.2000
  1.0000 	 1.1000 	 8.5143 	 12.4141 	 2.3584 	 20.6249 	 2.8879 	 39.3317 	 49.1468 	 18.7068 	 4.2000
  1.0000 	 1.2000 	 8.6839 	 12.2919 	 2.1748 	 23.0262 	 2.7710 	 41.8480 	 44.5603 	 18.8219 	 4.2000
  1.0000 	 1.3000 	 8.8273 	 12.1912 	 2.0176 	 25.5157 	 2.6766 	 44.1429 	 40.1245 	 18.6272 	 4.2000
  1.0000 	 1.4000 	 8.9503 	 12.1068 	 1.8811 	 28.1289 	 2.5992 	 46.2384 	 35.7832 	 18.1095 	 4.2000
  1.0000 	 1.5000 	 9.0569 	 12.0351 	 1.7612 	 30.9135 	 2.5350 	 48.1546 	 31.4678 	 17.2411 	 4.2000
  1.0000 	 1.6000 	 9.1502 	 11.9734 	 1.6548 	 33.9396 	 2.4813 	 49.9101 	 27.0852 	 15.9706 	 4.2000
  1.0000 	 1.0000 	 8.2576 	 12.7562 	 2.6327 	 18.2235 	 3.0904 	 36.1558 	 54.1542 	 17.9323 	 4.3000
  1.0000 	 1.1000 	 8.4659 	 12.5977 	 2.4104 	 20.5697 	 2.9393 	 38.9168 	 49.3529 	 18.3471 	 4.3000
  1.0000 	 1.2000 	 8.6395 	 12.4700 	 2.2231 	 22.9742 	 2.8189 	 41.4356 	 44.7474 	 18.4614 	 4.3000
  1.0000 	 1.3000 	 8.7863 	 12.3649 	 2.0627 	 25.4655 	 2.7216 	 43.7348 	 40.2887 	 18.2693 	 4.3000
  1.0000 	 1.4000 	 8.9123 	 12.2769 	 1.9236 	 28.0788 	 2.6418 	 45.8360 	 35.9204 	 17.7572 	 4.3000
  1.0000 	 1.5000 	 9.0214 	 12.2021 	 1.8014 	 30.8616 	 2.5756 	 47.7590 	 31.5733 	 16.8974 	 4.3000
  1.0000 	 1.6000 	 9.1168 	 12.1378 	 1.6930 	 33.8838 	 2.5201 	 49.5218 	 27.1528 	 15.6380 	 4.3000
  1.0000 	 1.0000 	 8.2043 	 12.9464 	 2.6892 	 18.1583 	 3.1461 	 35.7496 	 54.3655 	 17.5913 	 4.4000
  1.0000 	 1.1000 	 8.4174 	 12.7807 	 2.4623 	 20.5086 	 2.9906 	 38.5102 	 49.5497 	 18.0016 	 4.4000
  1.0000 	 1.2000 	 8.5951 	 12.6474 	 2.2712 	 22.9161 	 2.8667 	 41.0311 	 44.9255 	 18.1150 	 4.4000
  1.0000 	 1.3000 	 8.7454 	 12.5378 	 2.1077 	 25.4090 	 2.7664 	 43.3344 	 40.4440 	 17.9254 	 4.4000
  1.0000 	 1.4000 	 8.8742 	 12.4461 	 1.9658 	 28.0224 	 2.6842 	 45.4409 	 36.0489 	 17.4186 	 4.4000
  1.0000 	 1.5000 	 8.9858 	 12.3682 	 1.8414 	 30.8035 	 2.6160 	 47.3702 	 31.6701 	 16.5667 	 4.4000
  1.0000 	 1.6000 	 9.0835 	 12.3013 	 1.7310 	 33.8225 	 2.5588 	 49.1401 	 27.2113 	 15.3176 	 4.4000
  1.0000 	 1.0000 	 8.1510 	 13.1362 	 2.7456 	 18.0880 	 3.2016 	 35.3516 	 54.5680 	 17.2635 	 4.5000
  1.0000 	 1.1000 	 8.3690 	 12.9632 	 2.5141 	 20.4422 	 3.0418 	 38.1116 	 49.7378 	 17.6694 	 4.5000
  1.0000 	 1.2000 	 8.5506 	 12.8242 	 2.3192 	 22.8523 	 2.9143 	 40.6343 	 45.0951 	 17.7820 	 4.5000
  1.0000 	 1.3000 	 8.7044 	 12.7100 	 2.1525 	 25.3466 	 2.8112 	 42.9412 	 40.5911 	 17.5946 	 4.5000
  1.0000 	 1.4000 	 8.8361 	 12.6145 	 2.0079 	 27.9601 	 2.7265 	 45.0528 	 36.1692 	 17.0928 	 4.5000
  1.0000 	 1.5000 	 8.9503 	 12.5334 	 1.8811 	 30.7399 	 2.6563 	 46.9882 	 31.7588 	 16.2483 	 4.5000
  1.0000 	 1.6000 	 9.0502 	 12.4638 	 1.7688 	 33.7561 	 2.5974 	 48.7648 	 27.2617 	 15.0088 	 4.5000
