# d(e,e'p)n Central Kinematics Summary
# Beam Energy (Ei) = 10.549 GeV
# 4-Momentum Transfer (Q2) = 2.10 - 4.50 GeV (step: 0.10) 
# x-Bjorken (xbj) = 1.00 - 2.10 (step: 0.10) 
# Missing Momentum (Pr) = 0.00 - 0.80 GeV (step: 0.10) 
# Hadron Out-of-Plane Angle (phi) = 180 deg 
# thp = thq + thpq, phi = 180 ?  (q-vector scatters at smaller  angles than proton scattering angle)# 
# # 
# Tensor Polarized Deuterium: d(e,e'p) kinematics :
# 
# Header Definitions: 
# Pr   : Central Missing Momentum [GeV/c] 
# xbj  : Bjorken x  
# kf   : e- final momentum [GeV/c] 
# th_e : e- scattering angle [deg] 
# Pf   : final proton momentum [GeV/c] 
# th_p : proton scattering angle [deg] 
# q    : 3-momentum transfer [GeV] 
# th_q : relative angle between q-vector and +z (lab)  [deg] 
# th_nq: relative angle between q-vector and recoil neutron [deg] 
# th_pq: relative angle between q-vector and knocked-out proton [deg] 
# Q2   : 4-Momentum Transfer [GeV^2]  
# 
#! Pr[f,0]/ 	  xbj[f,1]/ 	 kf[f,2]/ 	 th_e[f,3]/ 	 Pf[f,4]/ 	 th_p[f,5]/ 	 q[f,6]/ 	 th_q[f,7]/ 	 th_nq[f,8]/ 	 th_pq[f,9]/ 	 Q2[f,10]/
  0.1000 	 1.0000 	 9.4299 	 8.3321 	 1.8225 	 45.1484 	 1.8309 	 48.2741 	 83.5819 	 3.1257 	 2.1000
  0.1000 	 1.1000 	 9.5317 	 8.2875 	 1.7072 	 48.3411 	 1.7706 	 50.8912 	 49.4299 	 2.5501 	 2.1000
  0.1000 	 1.0000 	 9.3766 	 8.5528 	 1.8822 	 44.4995 	 1.8906 	 47.5264 	 83.6629 	 3.0269 	 2.2000
  0.1000 	 1.1000 	 9.4832 	 8.5045 	 1.7623 	 47.7110 	 1.8264 	 50.1617 	 48.9002 	 2.4507 	 2.2000
  0.1000 	 1.0000 	 9.3233 	 8.7704 	 1.9416 	 43.8713 	 1.9499 	 46.8060 	 83.7378 	 2.9347 	 2.3000
  0.1000 	 1.1000 	 9.4348 	 8.7184 	 1.8170 	 47.0994 	 1.8819 	 49.4576 	 48.3869 	 2.3582 	 2.3000
  0.1000 	 1.0000 	 9.2701 	 8.9852 	 2.0006 	 43.2626 	 2.0089 	 46.1110 	 83.8072 	 2.8484 	 2.4000
  0.1000 	 1.1000 	 9.3863 	 8.9292 	 1.8714 	 46.5054 	 1.9370 	 48.7773 	 47.8892 	 2.2719 	 2.4000
  0.1000 	 1.0000 	 9.2168 	 9.1974 	 2.0593 	 42.6722 	 2.0676 	 45.4397 	 83.8717 	 2.7675 	 2.5000
  0.1000 	 1.1000 	 9.3379 	 9.1374 	 1.9254 	 45.9279 	 1.9917 	 48.1191 	 47.4063 	 2.1912 	 2.5000
  0.1000 	 1.0000 	 9.1635 	 9.4072 	 2.1177 	 42.0992 	 2.1260 	 44.7906 	 83.9319 	 2.6914 	 2.6000
  0.1000 	 1.1000 	 9.2894 	 9.3431 	 1.9792 	 45.3662 	 2.0461 	 47.4818 	 46.9375 	 2.1156 	 2.6000
  0.1000 	 1.0000 	 9.1102 	 9.6149 	 2.1759 	 41.5426 	 2.1841 	 44.1623 	 83.9881 	 2.6197 	 2.7000
  0.1000 	 1.1000 	 9.2410 	 9.5465 	 2.0326 	 44.8194 	 2.1002 	 46.8639 	 46.4820 	 2.0445 	 2.7000
  0.1000 	 1.0000 	 9.0569 	 9.8206 	 2.2338 	 41.0015 	 2.2420 	 43.5534 	 84.0407 	 2.5519 	 2.8000
  0.1000 	 1.1000 	 9.1925 	 9.7477 	 2.0859 	 44.2867 	 2.1541 	 46.2643 	 46.0393 	 1.9776 	 2.8000
  0.1000 	 1.0000 	 9.0036 	 10.0245 	 2.2915 	 40.4751 	 2.2996 	 42.9630 	 84.0901 	 2.4879 	 2.9000
  0.1000 	 1.1000 	 9.1441 	 9.9470 	 2.1389 	 43.7675 	 2.2077 	 45.6820 	 45.6087 	 1.9145 	 2.9000
  0.1000 	 1.0000 	 8.9503 	 10.2267 	 2.3490 	 39.9626 	 2.3571 	 42.3897 	 84.1366 	 2.4272 	 3.0000
  0.1000 	 1.1000 	 9.0957 	 10.1444 	 2.1917 	 43.2611 	 2.2610 	 45.1161 	 45.1898 	 1.8550 	 3.0000
  0.1000 	 1.0000 	 8.8970 	 10.4274 	 2.4063 	 39.4633 	 2.4143 	 41.8328 	 84.1804 	 2.3695 	 3.1000
  0.1000 	 1.1000 	 9.0472 	 10.3402 	 2.2443 	 42.7669 	 2.3142 	 44.5655 	 44.7819 	 1.7986 	 3.1000
  0.1000 	 1.0000 	 8.8437 	 10.6267 	 2.4634 	 38.9766 	 2.4714 	 41.2914 	 84.2218 	 2.3147 	 3.2000
  0.1000 	 1.1000 	 8.9988 	 10.5345 	 2.2967 	 42.2844 	 2.3671 	 44.0296 	 44.3845 	 1.7452 	 3.2000
  0.1000 	 1.0000 	 8.7904 	 10.8247 	 2.5203 	 38.5019 	 2.5283 	 40.7645 	 84.2609 	 2.2626 	 3.3000
  0.1000 	 1.1000 	 8.9503 	 10.7273 	 2.3490 	 41.8129 	 2.4199 	 43.5075 	 43.9973 	 1.6946 	 3.3000
  0.1000 	 1.0000 	 8.7372 	 11.0215 	 2.5771 	 38.0386 	 2.5851 	 40.2514 	 84.2979 	 2.2128 	 3.4000
  0.1000 	 1.1000 	 8.9019 	 10.9188 	 2.4011 	 41.3521 	 2.4725 	 42.9986 	 43.6198 	 1.6464 	 3.4000
  0.1000 	 1.0000 	 8.6839 	 11.2173 	 2.6337 	 37.5862 	 2.6417 	 39.7515 	 84.3331 	 2.1653 	 3.5000
  0.1000 	 1.1000 	 8.8534 	 11.1090 	 2.4530 	 40.9015 	 2.5249 	 42.5021 	 43.2515 	 1.6007 	 3.5000
  0.1000 	 1.0000 	 8.6306 	 11.4121 	 2.6902 	 37.1442 	 2.6982 	 39.2641 	 84.3664 	 2.1200 	 3.6000
  0.1000 	 1.1000 	 8.8050 	 11.2982 	 2.5048 	 40.4605 	 2.5771 	 42.0176 	 42.8921 	 1.5571 	 3.6000
  0.1000 	 1.0000 	 8.5773 	 11.6061 	 2.7466 	 36.7121 	 2.7546 	 38.7886 	 84.3982 	 2.0765 	 3.7000
  0.1000 	 1.1000 	 8.7565 	 11.4863 	 2.5565 	 40.0289 	 2.6292 	 41.5444 	 42.5412 	 1.5155 	 3.7000
  0.1000 	 1.0000 	 8.5240 	 11.7993 	 2.8029 	 36.2894 	 2.8108 	 38.3244 	 84.4284 	 2.0350 	 3.8000
  0.1000 	 1.1000 	 8.7081 	 11.6734 	 2.6080 	 39.6063 	 2.6812 	 41.0821 	 42.1985 	 1.4758 	 3.8000
  0.1000 	 1.0000 	 8.4707 	 11.9917 	 2.8590 	 35.8759 	 2.8669 	 37.8710 	 84.4572 	 1.9951 	 3.9000
  0.1000 	 1.1000 	 8.6596 	 11.8597 	 2.6594 	 39.1922 	 2.7331 	 40.6301 	 41.8637 	 1.4379 	 3.9000
  0.1000 	 1.0000 	 8.4174 	 12.1836 	 2.9150 	 35.4710 	 2.9229 	 37.4278 	 84.4848 	 1.9568 	 4.0000
  0.1000 	 1.1000 	 8.6112 	 12.0452 	 2.7107 	 38.7863 	 2.7848 	 40.1880 	 41.5364 	 1.4017 	 4.0000
  0.1000 	 1.0000 	 8.3641 	 12.3749 	 2.9710 	 35.0745 	 2.9789 	 36.9946 	 84.5111 	 1.9200 	 4.1000
  0.1000 	 1.1000 	 8.5628 	 12.2300 	 2.7620 	 38.3883 	 2.8364 	 39.7553 	 41.2163 	 1.3670 	 4.1000
  0.1000 	 1.0000 	 8.3108 	 12.5658 	 3.0268 	 34.6860 	 3.0347 	 36.5707 	 84.5362 	 1.8847 	 4.2000
  0.1000 	 1.1000 	 8.5143 	 12.4141 	 2.8131 	 37.9979 	 2.8879 	 39.3317 	 40.9033 	 1.3338 	 4.2000
  0.1000 	 1.0000 	 8.2576 	 12.7562 	 3.0826 	 34.3052 	 3.0904 	 36.1558 	 84.5603 	 1.8507 	 4.3000
  0.1000 	 1.1000 	 8.4659 	 12.5977 	 2.8641 	 37.6149 	 2.9393 	 38.9168 	 40.5969 	 1.3019 	 4.3000
  0.1000 	 1.0000 	 8.2043 	 12.9464 	 3.1382 	 33.9317 	 3.1461 	 35.7496 	 84.5834 	 1.8179 	 4.4000
  0.1000 	 1.1000 	 8.4174 	 12.7807 	 2.9150 	 37.2389 	 2.9906 	 38.5102 	 40.2971 	 1.2713 	 4.4000
  0.1000 	 1.0000 	 8.1510 	 13.1362 	 3.1938 	 33.5653 	 3.2016 	 35.3516 	 84.6055 	 1.7863 	 4.5000
  0.1000 	 1.1000 	 8.3690 	 12.9632 	 2.9659 	 36.8696 	 3.0418 	 38.1116 	 40.0035 	 1.2419 	 4.5000
  0.2000 	 1.0000 	 9.4299 	 8.3321 	 1.8047 	 42.0214 	 1.8309 	 48.2741 	 79.3595 	 6.2527 	 2.1000
  0.2000 	 1.1000 	 9.5317 	 8.2875 	 1.6893 	 44.8351 	 1.7706 	 50.8912 	 63.0117 	 6.0561 	 2.1000
  0.2000 	 1.2000 	 9.6164 	 8.2508 	 1.5916 	 47.9983 	 1.7233 	 53.2075 	 46.2637 	 5.2093 	 2.1000
  0.2000 	 1.3000 	 9.6882 	 8.2201 	 1.5077 	 51.9753 	 1.6855 	 55.2659 	 25.6401 	 3.2906 	 2.1000
  0.2000 	 1.0000 	 9.3766 	 8.5528 	 1.8646 	 41.4722 	 1.8906 	 47.5264 	 79.5080 	 6.0541 	 2.2000
  0.2000 	 1.1000 	 9.4832 	 8.5045 	 1.7445 	 44.3035 	 1.8264 	 50.1617 	 62.9054 	 5.8582 	 2.2000
  0.2000 	 1.2000 	 9.5720 	 8.4649 	 1.6429 	 47.4917 	 1.7761 	 52.4985 	 45.8009 	 5.0068 	 2.2000
  0.2000 	 1.3000 	 9.6472 	 8.4318 	 1.5558 	 51.5454 	 1.7359 	 54.5784 	 24.3052 	 3.0330 	 2.2000
  0.2000 	 1.0000 	 9.3233 	 8.7704 	 1.9241 	 40.9370 	 1.9499 	 46.8060 	 79.6454 	 5.8690 	 2.3000
  0.2000 	 1.1000 	 9.4348 	 8.7184 	 1.7993 	 43.7840 	 1.8819 	 49.4576 	 62.7989 	 5.6737 	 2.3000
  0.2000 	 1.2000 	 9.5276 	 8.6757 	 1.6939 	 46.9950 	 1.8284 	 51.8132 	 45.3476 	 4.8182 	 2.3000
  0.2000 	 1.3000 	 9.6062 	 8.6401 	 1.6035 	 51.1261 	 1.7857 	 53.9130 	 22.9428 	 2.7869 	 2.3000
  0.2000 	 1.0000 	 9.2701 	 8.9852 	 1.9832 	 40.4153 	 2.0089 	 46.1110 	 79.7729 	 5.6957 	 2.4000
  0.2000 	 1.1000 	 9.3863 	 8.9292 	 1.8537 	 43.2761 	 1.9370 	 48.7773 	 62.6927 	 5.5012 	 2.4000
  0.2000 	 1.2000 	 9.4832 	 8.8834 	 1.7445 	 46.5079 	 1.8804 	 51.1500 	 44.9038 	 4.6422 	 2.4000
  0.2000 	 1.3000 	 9.5652 	 8.8452 	 1.6508 	 50.7183 	 1.8352 	 53.2684 	 21.5452 	 2.5501 	 2.4000
  0.2000 	 1.0000 	 9.2168 	 9.1974 	 2.0420 	 39.9065 	 2.0676 	 45.4397 	 79.8916 	 5.5333 	 2.5000
  0.2000 	 1.1000 	 9.3379 	 9.1374 	 1.9079 	 42.7796 	 1.9917 	 48.1191 	 62.5872 	 5.3395 	 2.5000
  0.2000 	 1.2000 	 9.4388 	 9.0883 	 1.7947 	 46.0302 	 1.9320 	 50.5076 	 44.4693 	 4.4773 	 2.5000
  0.2000 	 1.3000 	 9.5242 	 9.0474 	 1.6978 	 50.3226 	 1.8842 	 52.6431 	 20.1026 	 2.3205 	 2.5000
  0.2000 	 1.0000 	 9.1635 	 9.4072 	 2.1005 	 39.4101 	 2.1260 	 44.7906 	 80.0023 	 5.3805 	 2.6000
  0.2000 	 1.1000 	 9.2894 	 9.3431 	 1.9617 	 42.2942 	 2.0461 	 47.4818 	 62.4825 	 5.1876 	 2.6000
  0.2000 	 1.2000 	 9.3944 	 9.2906 	 1.8447 	 45.5619 	 1.9832 	 49.8846 	 44.0439 	 4.3227 	 2.6000
  0.2000 	 1.3000 	 9.4832 	 9.2469 	 1.7445 	 49.9401 	 1.9328 	 52.0360 	 18.6018 	 2.0959 	 2.6000
  0.2000 	 1.0000 	 9.1102 	 9.6149 	 2.1587 	 38.9256 	 2.1841 	 44.1623 	 80.1058 	 5.2366 	 2.7000
  0.2000 	 1.1000 	 9.2410 	 9.5465 	 2.0153 	 41.8193 	 2.1002 	 46.8639 	 62.3791 	 5.0446 	 2.7000
  0.2000 	 1.2000 	 9.3500 	 9.4905 	 1.8944 	 45.1025 	 2.0341 	 49.2798 	 43.6274 	 4.1773 	 2.7000
  0.2000 	 1.3000 	 9.4422 	 9.4439 	 1.7909 	 49.5723 	 1.9812 	 51.4461 	 17.0245 	 1.8737 	 2.7000
  0.2000 	 1.0000 	 9.0569 	 9.8206 	 2.2167 	 38.4526 	 2.2420 	 43.5534 	 80.2030 	 5.1008 	 2.8000
  0.2000 	 1.1000 	 9.1925 	 9.7477 	 2.0686 	 41.3547 	 2.1541 	 46.2643 	 62.2769 	 4.9096 	 2.8000
  0.2000 	 1.2000 	 9.3056 	 9.6882 	 1.9438 	 44.6520 	 2.0847 	 48.6923 	 43.2196 	 4.0404 	 2.8000
  0.2000 	 1.3000 	 9.4012 	 9.6386 	 1.8370 	 49.2214 	 2.0291 	 50.8723 	 15.3444 	 1.6509 	 2.8000
  0.2000 	 1.0000 	 9.0036 	 10.0245 	 2.2745 	 37.9906 	 2.2996 	 42.9630 	 80.2942 	 4.9723 	 2.9000
  0.2000 	 1.1000 	 9.1441 	 9.9470 	 2.1217 	 40.9000 	 2.2077 	 45.6820 	 62.1763 	 4.7821 	 2.9000
  0.2000 	 1.2000 	 9.2612 	 9.8837 	 1.9930 	 44.2099 	 2.1351 	 48.1210 	 42.8202 	 3.9111 	 2.9000
  0.2000 	 1.3000 	 9.3602 	 9.8312 	 1.8829 	 48.8909 	 2.0768 	 50.3138 	 13.5200 	 1.4229 	 2.9000
  0.2000 	 1.0000 	 8.9503 	 10.2267 	 2.3320 	 37.5392 	 2.3571 	 42.3897 	 80.3801 	 4.8506 	 3.0000
  0.2000 	 1.1000 	 9.0957 	 10.1444 	 2.1746 	 40.4548 	 2.2610 	 45.1161 	 62.0772 	 4.6613 	 3.0000
  0.2000 	 1.2000 	 9.2168 	 10.0774 	 2.0420 	 43.7762 	 2.1851 	 47.5651 	 42.4291 	 3.7889 	 3.0000
  0.2000 	 1.3000 	 9.3192 	 10.0217 	 1.9286 	 48.5872 	 2.1242 	 49.7697 	 11.4793 	 1.1826 	 3.0000
  0.2000 	 1.0000 	 8.8970 	 10.4274 	 2.3893 	 37.0978 	 2.4143 	 41.8328 	 80.4612 	 4.7350 	 3.1000
  0.2000 	 1.1000 	 9.0472 	 10.3402 	 2.2272 	 40.0188 	 2.3142 	 44.5655 	 61.9797 	 4.5467 	 3.1000
  0.2000 	 1.2000 	 9.1724 	 10.2693 	 2.0908 	 43.3505 	 2.2350 	 47.0237 	 42.0459 	 3.6732 	 3.1000
  0.2000 	 1.3000 	 9.2783 	 10.2103 	 1.9741 	 48.3239 	 2.1714 	 49.2393 	 9.0735 	 0.9154 	 3.1000
  0.2000 	 1.0000 	 8.8437 	 10.6267 	 2.4465 	 36.6662 	 2.4714 	 41.2914 	 80.5378 	 4.6252 	 3.2000
  0.2000 	 1.1000 	 8.9988 	 10.5345 	 2.2797 	 39.5917 	 2.3671 	 44.0296 	 61.8839 	 4.4379 	 3.2000
  0.2000 	 1.2000 	 9.1279 	 10.4594 	 2.1393 	 42.9327 	 2.2846 	 46.4961 	 41.6704 	 3.5635 	 3.2000
  0.2000 	 1.3000 	 9.2373 	 10.3972 	 2.0194 	 48.1423 	 2.2183 	 48.7220 	 5.8633 	 0.5797 	 3.2000
  0.2000 	 1.0000 	 8.7904 	 10.8247 	 2.5035 	 36.2439 	 2.5283 	 40.7645 	 80.6103 	 4.5206 	 3.3000
  0.2000 	 1.1000 	 8.9503 	 10.7273 	 2.3320 	 39.1732 	 2.4199 	 43.5075 	 61.7898 	 4.3343 	 3.3000
  0.2000 	 1.2000 	 9.0835 	 10.6481 	 2.1877 	 42.5224 	 2.3340 	 45.9816 	 41.3024 	 3.4593 	 3.3000
  0.2000 	 1.0000 	 8.7372 	 11.0215 	 2.5603 	 35.8305 	 2.5851 	 40.2514 	 80.6790 	 4.4209 	 3.4000
  0.2000 	 1.1000 	 8.9019 	 10.9188 	 2.3841 	 38.7629 	 2.4725 	 42.9986 	 61.6975 	 4.2357 	 3.4000
  0.2000 	 1.2000 	 9.0391 	 10.8353 	 2.2360 	 42.1194 	 2.3832 	 45.4796 	 40.9417 	 3.3602 	 3.4000
  0.2000 	 1.0000 	 8.6839 	 11.2173 	 2.6170 	 35.4257 	 2.6417 	 39.7515 	 80.7442 	 4.3258 	 3.5000
  0.2000 	 1.1000 	 8.8534 	 11.1090 	 2.4361 	 38.3605 	 2.5249 	 42.5021 	 61.6069 	 4.1416 	 3.5000
  0.2000 	 1.2000 	 8.9947 	 11.0211 	 2.2841 	 41.7235 	 2.4322 	 44.9894 	 40.5881 	 3.2659 	 3.5000
  0.2000 	 1.0000 	 8.6306 	 11.4121 	 2.6736 	 35.0292 	 2.6982 	 39.2641 	 80.8063 	 4.2349 	 3.6000
  0.2000 	 1.1000 	 8.8050 	 11.2982 	 2.4880 	 37.9659 	 2.5771 	 42.0176 	 61.5180 	 4.0517 	 3.6000
  0.2000 	 1.2000 	 8.9503 	 11.2058 	 2.3320 	 41.3345 	 2.4811 	 44.5105 	 40.2412 	 3.1760 	 3.6000
  0.2000 	 1.0000 	 8.5773 	 11.6061 	 2.7300 	 34.6407 	 2.7546 	 38.7886 	 80.8653 	 4.1479 	 3.7000
  0.2000 	 1.1000 	 8.7565 	 11.4863 	 2.5397 	 37.5786 	 2.6292 	 41.5444 	 61.4309 	 3.9658 	 3.7000
  0.2000 	 1.2000 	 8.9059 	 11.3892 	 2.3798 	 40.9522 	 2.5298 	 44.0425 	 39.9009 	 3.0902 	 3.7000
  0.2000 	 1.0000 	 8.5240 	 11.7993 	 2.7863 	 34.2598 	 2.8108 	 38.3244 	 80.9216 	 4.0646 	 3.8000
  0.2000 	 1.1000 	 8.7081 	 11.6734 	 2.5913 	 37.1985 	 2.6812 	 41.0821 	 61.3455 	 3.8836 	 3.8000
  0.2000 	 1.2000 	 8.8615 	 11.5716 	 2.4275 	 40.5763 	 2.5783 	 43.5847 	 39.5671 	 3.0083 	 3.8000
  0.2000 	 1.0000 	 8.4707 	 11.9917 	 2.8424 	 33.8862 	 2.8669 	 37.8710 	 80.9753 	 3.9848 	 3.9000
  0.2000 	 1.1000 	 8.6596 	 11.8597 	 2.6427 	 36.8253 	 2.7331 	 40.6301 	 61.2618 	 3.8048 	 3.9000
  0.2000 	 1.2000 	 8.8171 	 11.7530 	 2.4750 	 40.2068 	 2.6267 	 43.1367 	 39.2394 	 2.9300 	 3.9000
  0.2000 	 1.0000 	 8.4174 	 12.1836 	 2.8985 	 33.5197 	 2.9229 	 37.4278 	 81.0266 	 3.9081 	 4.0000
  0.2000 	 1.1000 	 8.6112 	 12.0452 	 2.6941 	 36.4587 	 2.7848 	 40.1880 	 61.1797 	 3.7292 	 4.0000
  0.2000 	 1.2000 	 8.7727 	 11.9334 	 2.5225 	 39.8432 	 2.6749 	 42.6983 	 38.9178 	 2.8550 	 4.0000
  0.2000 	 1.0000 	 8.3641 	 12.3749 	 2.9545 	 33.1601 	 2.9789 	 36.9946 	 81.0757 	 3.8345 	 4.1000
  0.2000 	 1.1000 	 8.5628 	 12.2300 	 2.7453 	 36.0986 	 2.8364 	 39.7553 	 61.0993 	 3.6567 	 4.1000
  0.2000 	 1.2000 	 8.7283 	 12.1131 	 2.5698 	 39.4856 	 2.7231 	 42.2688 	 38.6020 	 2.7832 	 4.1000
  0.2000 	 1.0000 	 8.3108 	 12.5658 	 3.0103 	 32.8070 	 3.0347 	 36.5707 	 81.1227 	 3.7637 	 4.2000
  0.2000 	 1.1000 	 8.5143 	 12.4141 	 2.7965 	 35.7447 	 2.8879 	 39.3317 	 61.0205 	 3.5870 	 4.2000
  0.2000 	 1.2000 	 8.6839 	 12.2919 	 2.6170 	 39.1337 	 2.7710 	 41.8480 	 38.2918 	 2.7144 	 4.2000
  0.2000 	 1.0000 	 8.2576 	 12.7562 	 3.0661 	 32.4602 	 3.0904 	 36.1558 	 81.1677 	 3.6956 	 4.3000
  0.2000 	 1.1000 	 8.4659 	 12.5977 	 2.8475 	 35.3968 	 2.9393 	 38.9168 	 60.9432 	 3.5200 	 4.3000
  0.2000 	 1.2000 	 8.6395 	 12.4700 	 2.6641 	 38.7873 	 2.8189 	 41.4356 	 37.9871 	 2.6483 	 4.3000
  0.2000 	 1.0000 	 8.2043 	 12.9464 	 3.1218 	 32.1195 	 3.1461 	 35.7496 	 81.2109 	 3.6300 	 4.4000
  0.2000 	 1.1000 	 8.4174 	 12.7807 	 2.8985 	 35.0547 	 2.9906 	 38.5102 	 60.8676 	 3.4555 	 4.4000
  0.2000 	 1.2000 	 8.5951 	 12.6474 	 2.7112 	 38.4462 	 2.8667 	 41.0311 	 37.6876 	 2.5849 	 4.4000
  0.2000 	 1.0000 	 8.1510 	 13.1362 	 3.1774 	 31.7847 	 3.2016 	 35.3516 	 81.2523 	 3.5668 	 4.5000
  0.2000 	 1.1000 	 8.3690 	 12.9632 	 2.9494 	 34.7183 	 3.0418 	 38.1116 	 60.7934 	 3.3933 	 4.5000
  0.2000 	 1.2000 	 8.5506 	 12.8242 	 2.7581 	 38.1104 	 2.9143 	 40.6343 	 37.3934 	 2.5239 	 4.5000
  0.3000 	 1.0000 	 9.4299 	 8.3321 	 1.7758 	 38.8936 	 1.8309 	 48.2741 	 74.7451 	 9.3805 	 2.1000
  0.3000 	 1.1000 	 9.5317 	 8.2875 	 1.6598 	 41.5628 	 1.7706 	 50.8912 	 63.7423 	 9.3284 	 2.1000
  0.3000 	 1.2000 	 9.6164 	 8.2508 	 1.5617 	 44.3706 	 1.7233 	 53.2075 	 53.1019 	 8.8369 	 2.1000
  0.3000 	 1.3000 	 9.6882 	 8.2201 	 1.4774 	 47.4158 	 1.6855 	 55.2659 	 42.2686 	 7.8501 	 2.1000
  0.3000 	 1.4000 	 9.7497 	 8.1941 	 1.4040 	 50.9223 	 1.6550 	 57.1026 	 30.2541 	 6.1803 	 2.1000
  0.3000 	 1.5000 	 9.8029 	 8.1718 	 1.3394 	 55.8403 	 1.6299 	 58.7485 	 13.0924 	 2.9082 	 2.1000
  0.3000 	 1.0000 	 9.3766 	 8.5528 	 1.8358 	 38.4459 	 1.8906 	 47.5264 	 74.9650 	 9.0805 	 2.2000
  0.3000 	 1.1000 	 9.4832 	 8.5045 	 1.7152 	 41.1328 	 1.8264 	 50.1617 	 63.8001 	 9.0289 	 2.2000
  0.3000 	 1.2000 	 9.5720 	 8.4649 	 1.6133 	 43.9615 	 1.7761 	 52.4985 	 52.9680 	 8.5370 	 2.2000
  0.3000 	 1.3000 	 9.6472 	 8.4318 	 1.5257 	 47.0358 	 1.7359 	 54.5784 	 41.8797 	 7.5426 	 2.2000
  0.3000 	 1.4000 	 9.7116 	 8.4037 	 1.4496 	 50.5990 	 1.7033 	 56.4369 	 29.4372 	 5.8379 	 2.2000
  0.3000 	 1.5000 	 9.7674 	 8.3796 	 1.3826 	 55.8543 	 1.6766 	 58.1043 	 10.4243 	 2.2500 	 2.2000
  0.3000 	 1.0000 	 9.3233 	 8.7704 	 1.8955 	 38.0051 	 1.9499 	 46.8060 	 75.1685 	 8.8008 	 2.3000
  0.3000 	 1.1000 	 9.4348 	 8.7184 	 1.7703 	 40.7080 	 1.8819 	 49.4576 	 63.8484 	 8.7497 	 2.3000
  0.3000 	 1.2000 	 9.5276 	 8.6757 	 1.6645 	 43.5555 	 1.8284 	 51.8132 	 52.8309 	 8.2577 	 2.3000
  0.3000 	 1.3000 	 9.6062 	 8.6401 	 1.5736 	 46.6569 	 1.7857 	 53.9130 	 41.4927 	 7.2561 	 2.3000
  0.3000 	 1.4000 	 9.6735 	 8.6099 	 1.4947 	 50.2757 	 1.7511 	 55.7919 	 28.6157 	 5.5162 	 2.3000
  0.3000 	 1.5000 	 9.7319 	 8.5840 	 1.4253 	 56.0324 	 1.7227 	 57.4795 	 6.8912 	 1.4471 	 2.3000
  0.3000 	 1.0000 	 9.2701 	 8.9852 	 1.9547 	 37.5716 	 2.0089 	 46.1110 	 75.3572 	 8.5393 	 2.4000
  0.3000 	 1.1000 	 9.3863 	 8.9292 	 1.8249 	 40.2887 	 1.9370 	 48.7773 	 63.8884 	 8.4886 	 2.4000
  0.3000 	 1.2000 	 9.4832 	 8.8834 	 1.7152 	 43.1534 	 1.8804 	 51.1500 	 52.6917 	 7.9966 	 2.4000
  0.3000 	 1.3000 	 9.5652 	 8.8452 	 1.6212 	 46.2800 	 1.8352 	 53.2684 	 41.1083 	 6.9884 	 2.4000
  0.3000 	 1.4000 	 9.6355 	 8.8128 	 1.5395 	 49.9535 	 1.7985 	 55.1663 	 27.7893 	 5.2128 	 2.4000
  0.3000 	 1.0000 	 9.2168 	 9.1974 	 2.0137 	 37.1455 	 2.0676 	 45.4397 	 75.5328 	 8.2942 	 2.5000
  0.3000 	 1.1000 	 9.3379 	 9.1374 	 1.8792 	 39.8752 	 1.9917 	 48.1191 	 63.9213 	 8.2439 	 2.5000
  0.3000 	 1.2000 	 9.4388 	 9.0883 	 1.7657 	 42.7555 	 1.9320 	 50.5076 	 52.5513 	 7.7521 	 2.5000
  0.3000 	 1.3000 	 9.5242 	 9.0474 	 1.6684 	 45.9055 	 1.8842 	 52.6431 	 40.7269 	 6.7376 	 2.5000
  0.3000 	 1.4000 	 9.5974 	 9.0128 	 1.5839 	 49.6330 	 1.8454 	 54.5588 	 26.9576 	 4.9258 	 2.5000
  0.3000 	 1.0000 	 9.1635 	 9.4072 	 2.0723 	 36.7267 	 2.1260 	 44.7906 	 75.6967 	 8.0639 	 2.6000
  0.3000 	 1.1000 	 9.2894 	 9.3431 	 1.9332 	 39.4678 	 2.0461 	 47.4818 	 63.9482 	 8.0140 	 2.6000
  0.3000 	 1.2000 	 9.3944 	 9.2906 	 1.8158 	 42.3621 	 1.9832 	 49.8846 	 52.4101 	 7.5225 	 2.6000
  0.3000 	 1.3000 	 9.4832 	 9.2469 	 1.7152 	 45.5339 	 1.9328 	 52.0360 	 40.3491 	 6.5021 	 2.6000
  0.3000 	 1.4000 	 9.5593 	 9.2100 	 1.6279 	 49.3149 	 1.8919 	 53.9685 	 26.1200 	 4.6535 	 2.6000
  0.3000 	 1.0000 	 9.1102 	 9.6149 	 2.1307 	 36.3153 	 2.1841 	 44.1623 	 75.8499 	 7.8470 	 2.7000
  0.3000 	 1.1000 	 9.2410 	 9.5465 	 1.9869 	 39.0665 	 2.1002 	 46.8639 	 63.9697 	 7.7974 	 2.7000
  0.3000 	 1.2000 	 9.3500 	 9.4905 	 1.8657 	 41.9735 	 2.0341 	 49.2798 	 52.2689 	 7.3064 	 2.7000
  0.3000 	 1.3000 	 9.4422 	 9.4439 	 1.7618 	 45.1656 	 1.9812 	 51.4461 	 39.9752 	 6.2805 	 2.7000
  0.3000 	 1.4000 	 9.5213 	 9.4046 	 1.6717 	 48.9998 	 1.9381 	 53.3942 	 25.2756 	 4.3944 	 2.7000
  0.3000 	 1.0000 	 9.0569 	 9.8206 	 2.1888 	 35.9112 	 2.2420 	 43.5534 	 75.9936 	 7.6422 	 2.8000
  0.3000 	 1.1000 	 9.1925 	 9.7477 	 2.0404 	 38.6713 	 2.1541 	 46.2643 	 63.9867 	 7.5930 	 2.8000
  0.3000 	 1.2000 	 9.3056 	 9.6882 	 1.9153 	 41.5897 	 2.0847 	 48.6923 	 52.1279 	 7.1026 	 2.8000
  0.3000 	 1.3000 	 9.4012 	 9.6386 	 1.8081 	 44.8007 	 2.0291 	 50.8723 	 39.6054 	 6.0716 	 2.8000
  0.3000 	 1.4000 	 9.4832 	 9.5968 	 1.7152 	 48.6880 	 1.9839 	 52.8351 	 24.4232 	 4.1471 	 2.8000
  0.3000 	 1.0000 	 9.0036 	 10.0245 	 2.2467 	 35.5143 	 2.2996 	 42.9630 	 76.1286 	 7.4487 	 2.9000
  0.3000 	 1.1000 	 9.1441 	 9.9470 	 2.0936 	 38.2822 	 2.2077 	 45.6820 	 63.9997 	 7.3998 	 2.9000
  0.3000 	 1.2000 	 9.2612 	 9.8837 	 1.9646 	 41.2109 	 2.1351 	 48.1210 	 51.9876 	 6.9101 	 2.9000
  0.3000 	 1.3000 	 9.3602 	 9.8312 	 1.8542 	 44.4395 	 2.0768 	 50.3138 	 39.2398 	 5.8743 	 2.9000
  0.3000 	 1.4000 	 9.4451 	 9.7868 	 1.7585 	 48.3801 	 2.0294 	 52.2904 	 23.5618 	 3.9103 	 2.9000
  0.3000 	 1.0000 	 8.9503 	 10.2267 	 2.3043 	 35.1245 	 2.3571 	 42.3897 	 76.2557 	 7.2653 	 3.0000
  0.3000 	 1.1000 	 9.0957 	 10.1444 	 2.1466 	 37.8993 	 2.2610 	 45.1161 	 64.0092 	 7.2168 	 3.0000
  0.3000 	 1.2000 	 9.2168 	 10.0774 	 2.0137 	 40.8372 	 2.1851 	 47.5651 	 51.8482 	 6.7279 	 3.0000
  0.3000 	 1.3000 	 9.3192 	 10.0217 	 1.9000 	 44.0821 	 2.1242 	 49.7697 	 38.8787 	 5.6876 	 3.0000
  0.3000 	 1.4000 	 9.4071 	 9.9747 	 1.8015 	 48.0763 	 2.0746 	 51.7593 	 22.6896 	 3.6829 	 3.0000
  0.3000 	 1.0000 	 8.8970 	 10.4274 	 2.3617 	 34.7415 	 2.4143 	 41.8328 	 76.3756 	 7.0913 	 3.1000
  0.3000 	 1.1000 	 9.0472 	 10.3402 	 2.1993 	 37.5224 	 2.3142 	 44.5655 	 64.0156 	 7.0431 	 3.1000
  0.3000 	 1.2000 	 9.1724 	 10.2693 	 2.0626 	 40.4685 	 2.2350 	 47.0237 	 51.7100 	 6.5552 	 3.1000
  0.3000 	 1.3000 	 9.2783 	 10.2103 	 1.9456 	 43.7286 	 2.1714 	 49.2393 	 38.5220 	 5.5107 	 3.1000
  0.3000 	 1.4000 	 9.3690 	 10.1606 	 1.8444 	 47.7772 	 2.1195 	 51.2410 	 21.8048 	 3.4639 	 3.1000
  0.3000 	 1.0000 	 8.8437 	 10.6267 	 2.4190 	 34.3654 	 2.4714 	 41.2914 	 76.4889 	 6.9260 	 3.2000
  0.3000 	 1.1000 	 8.9988 	 10.5345 	 2.2519 	 37.1515 	 2.3671 	 44.0296 	 64.0194 	 6.8781 	 3.2000
  0.3000 	 1.2000 	 9.1279 	 10.4594 	 2.1113 	 40.1049 	 2.2846 	 46.4961 	 51.5731 	 6.3913 	 3.2000
  0.3000 	 1.3000 	 9.2373 	 10.3972 	 1.9911 	 43.3791 	 2.2183 	 48.7220 	 38.1697 	 5.3429 	 3.2000
  0.3000 	 1.4000 	 9.3310 	 10.3447 	 1.8870 	 47.4830 	 2.1642 	 50.7351 	 20.9053 	 3.2521 	 3.2000
  0.3000 	 1.0000 	 8.7904 	 10.8247 	 2.4761 	 33.9959 	 2.5283 	 40.7645 	 76.5962 	 6.7686 	 3.3000
  0.3000 	 1.1000 	 8.9503 	 10.7273 	 2.3043 	 36.7864 	 2.4199 	 43.5075 	 64.0208 	 6.7211 	 3.3000
  0.3000 	 1.2000 	 9.0835 	 10.6481 	 2.1598 	 39.7463 	 2.3340 	 45.9816 	 51.4376 	 6.2354 	 3.3000
  0.3000 	 1.3000 	 9.1963 	 10.5824 	 2.0363 	 43.0337 	 2.2649 	 48.2170 	 37.8220 	 5.1833 	 3.3000
  0.3000 	 1.4000 	 9.2929 	 10.5271 	 1.9294 	 47.1941 	 2.2086 	 50.2408 	 19.9883 	 3.0468 	 3.3000
  0.3000 	 1.0000 	 8.7372 	 11.0215 	 2.5330 	 33.6328 	 2.5851 	 40.2514 	 76.6978 	 6.6187 	 3.4000
  0.3000 	 1.1000 	 8.9019 	 10.9188 	 2.3565 	 36.4271 	 2.4725 	 42.9986 	 64.0202 	 6.5714 	 3.4000
  0.3000 	 1.2000 	 9.0391 	 10.8353 	 2.2081 	 39.3927 	 2.3832 	 45.4796 	 51.3038 	 6.0869 	 3.4000
  0.3000 	 1.3000 	 9.1553 	 10.7661 	 2.0813 	 42.6922 	 2.3114 	 47.7238 	 37.4789 	 5.0315 	 3.4000
  0.3000 	 1.4000 	 9.2548 	 10.7079 	 1.9716 	 46.9109 	 2.2527 	 49.7577 	 19.0506 	 2.8468 	 3.4000
  0.3000 	 1.0000 	 8.6839 	 11.2173 	 2.5897 	 33.2760 	 2.6417 	 39.7515 	 76.7943 	 6.4756 	 3.5000
  0.3000 	 1.1000 	 8.8534 	 11.1090 	 2.4086 	 36.0735 	 2.5249 	 42.5021 	 64.0177 	 6.4286 	 3.5000
  0.3000 	 1.2000 	 8.9947 	 11.0211 	 2.2563 	 39.0440 	 2.4322 	 44.9894 	 51.1716 	 5.9454 	 3.5000
  0.3000 	 1.3000 	 9.1143 	 10.9484 	 2.1262 	 42.3549 	 2.3576 	 47.2418 	 37.1401 	 4.8869 	 3.5000
  0.3000 	 1.4000 	 9.2168 	 10.8872 	 2.0137 	 46.6339 	 2.2967 	 49.2852 	 18.0884 	 2.6512 	 3.5000
  0.3000 	 1.0000 	 8.6306 	 11.4121 	 2.6463 	 32.9253 	 2.6982 	 39.2641 	 76.8861 	 6.3389 	 3.6000
  0.3000 	 1.1000 	 8.8050 	 11.2982 	 2.4605 	 35.7254 	 2.5771 	 42.0176 	 64.0137 	 6.2922 	 3.6000
  0.3000 	 1.2000 	 8.9503 	 11.2058 	 2.3043 	 38.7002 	 2.4811 	 44.5105 	 51.0411 	 5.8104 	 3.6000
  0.3000 	 1.3000 	 9.0733 	 11.1293 	 2.1709 	 42.0215 	 2.4037 	 46.7705 	 36.8059 	 4.7489 	 3.6000
  0.3000 	 1.4000 	 9.1787 	 11.0650 	 2.0556 	 46.3637 	 2.3405 	 48.8228 	 17.0967 	 2.4590 	 3.6000
  0.3000 	 1.0000 	 8.5773 	 11.6061 	 2.7028 	 32.5805 	 2.7546 	 38.7886 	 76.9734 	 6.2081 	 3.7000
  0.3000 	 1.1000 	 8.7565 	 11.4863 	 2.5123 	 35.3827 	 2.6292 	 41.5444 	 64.0083 	 6.1617 	 3.7000
  0.3000 	 1.2000 	 8.9059 	 11.3892 	 2.3522 	 38.3611 	 2.5298 	 44.0425 	 50.9125 	 5.6813 	 3.7000
  0.3000 	 1.3000 	 9.0323 	 11.3090 	 2.2155 	 41.6922 	 2.4496 	 46.3094 	 36.4760 	 4.6172 	 3.7000
  0.3000 	 1.4000 	 9.1406 	 11.2416 	 2.0974 	 46.1010 	 2.3840 	 48.3701 	 16.0691 	 2.2690 	 3.7000
  0.3000 	 1.0000 	 8.5240 	 11.7993 	 2.7591 	 32.2415 	 2.8108 	 38.3244 	 77.0567 	 6.0829 	 3.8000
  0.3000 	 1.1000 	 8.7081 	 11.6734 	 2.5639 	 35.0453 	 2.6812 	 41.0821 	 64.0017 	 6.0368 	 3.8000
  0.3000 	 1.2000 	 8.8615 	 11.5716 	 2.3999 	 38.0268 	 2.5783 	 43.5847 	 50.7857 	 5.5579 	 3.8000
  0.3000 	 1.3000 	 8.9913 	 11.4875 	 2.2600 	 41.3669 	 2.4953 	 45.8581 	 36.1504 	 4.4913 	 3.8000
  0.3000 	 1.4000 	 9.1026 	 11.4168 	 2.1390 	 45.8467 	 2.4274 	 47.9266 	 14.9977 	 2.0800 	 3.8000
  0.3000 	 1.0000 	 8.4707 	 11.9917 	 2.8154 	 31.9081 	 2.8669 	 37.8710 	 77.1361 	 5.9628 	 3.9000
  0.3000 	 1.1000 	 8.6596 	 11.8597 	 2.6155 	 34.7130 	 2.7331 	 40.6301 	 63.9939 	 5.9171 	 3.9000
  0.3000 	 1.2000 	 8.8171 	 11.7530 	 2.4475 	 37.6971 	 2.6267 	 43.1367 	 50.6607 	 5.4397 	 3.9000
  0.3000 	 1.3000 	 8.9503 	 11.6649 	 2.3043 	 41.0455 	 2.5408 	 45.4162 	 35.8292 	 4.3708 	 3.9000
  0.3000 	 1.4000 	 9.0645 	 11.5909 	 2.1805 	 45.6019 	 2.4706 	 47.4921 	 13.8712 	 1.8902 	 3.9000
  0.3000 	 1.0000 	 8.4174 	 12.1836 	 2.8715 	 31.5802 	 2.9229 	 37.4278 	 77.2120 	 5.8477 	 4.0000
  0.3000 	 1.1000 	 8.6112 	 12.0452 	 2.6669 	 34.3858 	 2.7848 	 40.1880 	 63.9853 	 5.8022 	 4.0000
  0.3000 	 1.2000 	 8.7727 	 11.9334 	 2.4950 	 37.3719 	 2.6749 	 42.6983 	 50.5377 	 5.3264 	 4.0000
  0.3000 	 1.3000 	 8.9093 	 11.8413 	 2.3485 	 40.7279 	 2.5862 	 44.9833 	 35.5121 	 4.2554 	 4.0000
  0.3000 	 1.4000 	 9.0264 	 11.7639 	 2.2219 	 45.3685 	 2.5136 	 47.0661 	 12.6740 	 1.6976 	 4.0000
  0.3000 	 1.0000 	 8.3641 	 12.3749 	 2.9275 	 31.2575 	 2.9789 	 36.9946 	 77.2846 	 5.7371 	 4.1000
  0.3000 	 1.1000 	 8.5628 	 12.2300 	 2.7182 	 34.0635 	 2.8364 	 39.7553 	 63.9758 	 5.6918 	 4.1000
  0.3000 	 1.2000 	 8.7283 	 12.1131 	 2.5424 	 37.0511 	 2.7231 	 42.2688 	 50.4165 	 5.2177 	 4.1000
  0.3000 	 1.3000 	 8.8683 	 12.0167 	 2.3926 	 40.4143 	 2.6315 	 44.5590 	 35.1992 	 4.1447 	 4.1000
  0.3000 	 1.4000 	 8.9884 	 11.9359 	 2.2631 	 45.1491 	 2.5565 	 46.6483 	 11.3830 	 1.4992 	 4.1000
  0.3000 	 1.0000 	 8.3108 	 12.5658 	 2.9834 	 30.9399 	 3.0347 	 36.5707 	 77.3541 	 5.6307 	 4.2000
  0.3000 	 1.1000 	 8.5143 	 12.4141 	 2.7694 	 33.7459 	 2.8879 	 39.3317 	 63.9656 	 5.5858 	 4.2000
  0.3000 	 1.2000 	 8.6839 	 12.2919 	 2.5897 	 36.7347 	 2.7710 	 41.8480 	 50.2972 	 5.1133 	 4.2000
  0.3000 	 1.3000 	 8.8273 	 12.1912 	 2.4366 	 40.1044 	 2.6766 	 44.1429 	 34.8903 	 4.0386 	 4.2000
  0.3000 	 1.4000 	 8.9503 	 12.1068 	 2.3043 	 44.9480 	 2.5992 	 46.2384 	 9.9604 	 1.2904 	 4.2000
  0.3000 	 1.0000 	 8.2576 	 12.7562 	 3.0392 	 30.6274 	 3.0904 	 36.1558 	 77.4207 	 5.5284 	 4.3000
  0.3000 	 1.1000 	 8.4659 	 12.5977 	 2.8205 	 33.4330 	 2.9393 	 38.9168 	 63.9548 	 5.4837 	 4.3000
  0.3000 	 1.2000 	 8.6395 	 12.4700 	 2.6369 	 36.4225 	 2.8189 	 41.4356 	 50.1797 	 5.0130 	 4.3000
  0.3000 	 1.3000 	 8.7863 	 12.3649 	 2.4804 	 39.7982 	 2.7216 	 43.7348 	 34.5853 	 3.9366 	 4.3000
  0.3000 	 1.4000 	 8.9123 	 12.2769 	 2.3453 	 44.7732 	 2.6418 	 45.8360 	 8.3381 	 1.0628 	 4.3000
  0.3000 	 1.0000 	 8.2043 	 12.9464 	 3.0950 	 30.3196 	 3.1461 	 35.7496 	 77.4846 	 5.4299 	 4.4000
  0.3000 	 1.1000 	 8.4174 	 12.7807 	 2.8715 	 33.1247 	 2.9906 	 38.5102 	 63.9434 	 5.3855 	 4.4000
  0.3000 	 1.2000 	 8.5951 	 12.6474 	 2.6840 	 36.1146 	 2.8667 	 41.0311 	 50.0642 	 4.9165 	 4.4000
  0.3000 	 1.3000 	 8.7454 	 12.5378 	 2.5242 	 39.4957 	 2.7664 	 43.3344 	 34.2843 	 3.8387 	 4.4000
  0.3000 	 1.4000 	 8.8742 	 12.4461 	 2.3863 	 44.6426 	 2.6842 	 45.4409 	 6.3632 	 0.7984 	 4.4000
  0.3000 	 1.0000 	 8.1510 	 13.1362 	 3.1506 	 30.0165 	 3.2016 	 35.3516 	 77.5459 	 5.3350 	 4.5000
  0.3000 	 1.1000 	 8.3690 	 12.9632 	 2.9224 	 32.8207 	 3.0418 	 38.1116 	 63.9315 	 5.2909 	 4.5000
  0.3000 	 1.2000 	 8.5506 	 12.8242 	 2.7310 	 35.8106 	 2.9143 	 40.6343 	 49.9504 	 4.8237 	 4.5000
  0.3000 	 1.3000 	 8.7044 	 12.7100 	 2.5679 	 39.1968 	 2.8112 	 42.9412 	 33.9871 	 3.7445 	 4.5000
  0.3000 	 1.4000 	 8.8361 	 12.6145 	 2.4271 	 44.6233 	 2.7265 	 45.0528 	 3.4772 	 0.4295 	 4.5000
  0.4000 	 1.0000 	 9.4299 	 8.3321 	 1.7362 	 35.7607 	 1.8309 	 48.2741 	 70.1281 	 12.5134 	 2.1000
  0.4000 	 1.1000 	 9.5317 	 8.2875 	 1.6196 	 38.3331 	 1.7706 	 50.8912 	 61.6900 	 12.5581 	 2.1000
  0.4000 	 1.2000 	 9.6164 	 8.2508 	 1.5209 	 40.9739 	 1.7233 	 53.2075 	 53.6760 	 12.2337 	 2.1000
  0.4000 	 1.3000 	 9.6882 	 8.2201 	 1.4359 	 43.7358 	 1.6855 	 55.2659 	 45.8510 	 11.5301 	 2.1000
  0.4000 	 1.4000 	 9.7497 	 8.1941 	 1.3619 	 46.7008 	 1.6550 	 57.1026 	 37.9311 	 10.4019 	 2.1000
  0.4000 	 1.5000 	 9.8029 	 8.1718 	 1.2966 	 50.0225 	 1.6299 	 58.7485 	 29.4572 	 8.7260 	 2.1000
  0.4000 	 1.6000 	 9.8496 	 8.1524 	 1.2386 	 54.1066 	 1.6091 	 60.2295 	 19.2857 	 6.1229 	 2.1000
  0.4000 	 1.0000 	 9.3766 	 8.5528 	 1.7966 	 35.4172 	 1.8906 	 47.5264 	 70.4216 	 12.1092 	 2.2000
  0.4000 	 1.1000 	 9.4832 	 8.5045 	 1.6754 	 38.0075 	 1.8264 	 50.1617 	 61.8671 	 12.1542 	 2.2000
  0.4000 	 1.2000 	 9.5720 	 8.4649 	 1.5728 	 40.6677 	 1.7761 	 52.4985 	 53.7217 	 11.8308 	 2.2000
  0.4000 	 1.3000 	 9.6472 	 8.4318 	 1.4846 	 43.4525 	 1.7359 	 54.5784 	 45.7419 	 11.1259 	 2.2000
  0.4000 	 1.4000 	 9.7116 	 8.4037 	 1.4078 	 46.4481 	 1.7033 	 56.4369 	 37.6251 	 9.9888 	 2.2000
  0.4000 	 1.5000 	 9.7674 	 8.3796 	 1.3402 	 49.8211 	 1.6766 	 58.1043 	 28.8620 	 8.2832 	 2.2000
  0.4000 	 1.6000 	 9.8163 	 8.3587 	 1.2801 	 54.0409 	 1.6544 	 59.6062 	 18.0818 	 5.5653 	 2.2000
  0.4000 	 1.0000 	 9.3233 	 8.7704 	 1.8565 	 35.0733 	 1.9499 	 46.8060 	 70.6930 	 11.7327 	 2.3000
  0.4000 	 1.1000 	 9.4348 	 8.7184 	 1.7307 	 37.6798 	 1.8819 	 49.4576 	 62.0267 	 11.7778 	 2.3000
  0.4000 	 1.2000 	 9.5276 	 8.6757 	 1.6243 	 40.3578 	 1.8284 	 51.8132 	 53.7545 	 11.4554 	 2.3000
  0.4000 	 1.3000 	 9.6062 	 8.6401 	 1.5329 	 43.1637 	 1.7857 	 53.9130 	 45.6238 	 10.7493 	 2.3000
  0.4000 	 1.4000 	 9.6735 	 8.6099 	 1.4534 	 46.1883 	 1.7511 	 55.7919 	 37.3123 	 9.6036 	 2.3000
  0.4000 	 1.5000 	 9.7319 	 8.5840 	 1.3834 	 49.6119 	 1.7227 	 57.4795 	 28.2557 	 7.8676 	 2.3000
  0.4000 	 1.6000 	 9.7830 	 8.5615 	 1.3212 	 53.9799 	 1.6991 	 59.0012 	 16.8041 	 5.0213 	 2.3000
  0.4000 	 1.0000 	 9.2701 	 8.9852 	 1.9160 	 34.7301 	 2.0089 	 46.1110 	 70.9445 	 11.3809 	 2.4000
  0.4000 	 1.1000 	 9.3863 	 8.9292 	 1.7856 	 37.3512 	 1.9370 	 48.7773 	 62.1712 	 11.4261 	 2.4000
  0.4000 	 1.2000 	 9.4832 	 8.8834 	 1.6754 	 40.0453 	 1.8804 	 51.1500 	 53.7763 	 11.1047 	 2.4000
  0.4000 	 1.3000 	 9.5652 	 8.8452 	 1.5808 	 42.8708 	 1.8352 	 53.2684 	 45.4984 	 10.3976 	 2.4000
  0.4000 	 1.4000 	 9.6355 	 8.8128 	 1.4985 	 45.9229 	 1.7985 	 55.1663 	 36.9944 	 9.2433 	 2.4000
  0.4000 	 1.5000 	 9.6964 	 8.7850 	 1.4261 	 49.3965 	 1.7683 	 56.8729 	 27.6395 	 7.4765 	 2.4000
  0.4000 	 1.6000 	 9.7497 	 8.7609 	 1.3619 	 53.9292 	 1.7433 	 58.4133 	 15.4374 	 4.4841 	 2.4000
  0.4000 	 1.0000 	 9.2168 	 9.1974 	 1.9752 	 34.3885 	 2.0676 	 45.4397 	 71.1785 	 11.0513 	 2.5000
  0.4000 	 1.1000 	 9.3379 	 9.1374 	 1.8402 	 37.0226 	 1.9917 	 48.1191 	 62.3022 	 11.0966 	 2.5000
  0.4000 	 1.2000 	 9.4388 	 9.0883 	 1.7261 	 39.7314 	 1.9320 	 50.5076 	 53.7888 	 10.7762 	 2.5000
  0.4000 	 1.3000 	 9.5242 	 9.0474 	 1.6282 	 42.5749 	 1.8842 	 52.6431 	 45.3671 	 10.0681 	 2.5000
  0.4000 	 1.4000 	 9.5974 	 9.0128 	 1.5432 	 45.6532 	 1.8454 	 54.5588 	 36.6727 	 8.9056 	 2.5000
  0.4000 	 1.5000 	 9.6608 	 8.9831 	 1.4684 	 49.1762 	 1.8135 	 56.2835 	 27.0144 	 7.1073 	 2.5000
  0.4000 	 1.6000 	 9.7164 	 8.9573 	 1.4021 	 53.8958 	 1.7870 	 57.8416 	 13.9577 	 3.9457 	 2.5000
  0.4000 	 1.0000 	 9.1635 	 9.4072 	 2.0340 	 34.0489 	 2.1260 	 44.7906 	 71.3967 	 10.7417 	 2.6000
  0.4000 	 1.1000 	 9.2894 	 9.3431 	 1.8944 	 36.6947 	 2.0461 	 47.4818 	 62.4215 	 10.7870 	 2.6000
  0.4000 	 1.2000 	 9.3944 	 9.2906 	 1.7765 	 39.4168 	 1.9832 	 49.8846 	 53.7932 	 10.4677 	 2.6000
  0.4000 	 1.3000 	 9.4832 	 9.2469 	 1.6754 	 42.2772 	 1.9328 	 52.0360 	 45.2313 	 9.7588 	 2.6000
  0.4000 	 1.4000 	 9.5593 	 9.2100 	 1.5876 	 45.3802 	 1.8919 	 53.9685 	 36.3483 	 8.5883 	 2.6000
  0.4000 	 1.5000 	 9.6253 	 9.1783 	 1.5104 	 48.9523 	 1.8583 	 55.7100 	 26.3809 	 6.7578 	 2.6000
  0.4000 	 1.6000 	 9.6830 	 9.1508 	 1.4420 	 53.8901 	 1.8303 	 57.2850 	 12.3264 	 3.3949 	 2.6000
  0.4000 	 1.0000 	 9.1102 	 9.6149 	 2.0925 	 33.7119 	 2.1841 	 44.1623 	 71.6007 	 10.4504 	 2.7000
  0.4000 	 1.1000 	 9.2410 	 9.5465 	 1.9483 	 36.3683 	 2.1002 	 46.8639 	 62.5304 	 10.4956 	 2.7000
  0.4000 	 1.2000 	 9.3500 	 9.4905 	 1.8266 	 39.1025 	 2.0341 	 49.2798 	 53.7909 	 10.1774 	 2.7000
  0.4000 	 1.3000 	 9.4422 	 9.4439 	 1.7222 	 41.9782 	 1.9812 	 51.4461 	 45.0918 	 9.4678 	 2.7000
  0.4000 	 1.4000 	 9.5213 	 9.4046 	 1.6316 	 45.1047 	 1.9381 	 53.3942 	 36.0222 	 8.2895 	 2.7000
  0.4000 	 1.5000 	 9.5898 	 9.3708 	 1.5521 	 48.7257 	 1.9027 	 55.1518 	 25.7394 	 6.4261 	 2.7000
  0.4000 	 1.6000 	 9.6497 	 9.3416 	 1.4816 	 53.9293 	 1.8731 	 56.7426 	 10.4746 	 2.8133 	 2.7000
  0.4000 	 1.0000 	 9.0569 	 9.8206 	 2.1508 	 33.3779 	 2.2420 	 43.5534 	 71.7918 	 10.1756 	 2.8000
  0.4000 	 1.1000 	 9.1925 	 9.7477 	 2.0019 	 36.0437 	 2.1541 	 46.2643 	 62.6299 	 10.2207 	 2.8000
  0.4000 	 1.2000 	 9.3056 	 9.6882 	 1.8763 	 38.7888 	 2.0847 	 48.6923 	 53.7826 	 9.9035 	 2.8000
  0.4000 	 1.3000 	 9.4012 	 9.6386 	 1.7688 	 41.6788 	 2.0291 	 50.8723 	 44.9496 	 9.1935 	 2.8000
  0.4000 	 1.4000 	 9.4832 	 9.5968 	 1.6754 	 44.8276 	 1.9839 	 52.8351 	 35.6950 	 8.0075 	 2.8000
  0.4000 	 1.5000 	 9.5543 	 9.5610 	 1.5935 	 48.4973 	 1.9467 	 54.6078 	 25.0902 	 6.1105 	 2.8000
  0.4000 	 1.6000 	 9.6164 	 9.5299 	 1.5209 	 54.0492 	 1.9156 	 56.2138 	 8.2568 	 2.1646 	 2.8000
  0.4000 	 1.0000 	 9.0036 	 10.0245 	 2.2088 	 33.0471 	 2.2996 	 42.9630 	 71.9714 	 9.9158 	 2.9000
  0.4000 	 1.1000 	 9.1441 	 9.9470 	 2.0553 	 35.7213 	 2.2077 	 45.6820 	 62.7212 	 9.9608 	 2.9000
  0.4000 	 1.2000 	 9.2612 	 9.8837 	 1.9259 	 38.4763 	 2.1351 	 48.1210 	 53.7694 	 9.6447 	 2.9000
  0.4000 	 1.3000 	 9.3602 	 9.8312 	 1.8150 	 41.3794 	 2.0768 	 50.3138 	 44.8052 	 8.9343 	 2.9000
  0.4000 	 1.4000 	 9.4451 	 9.7868 	 1.7189 	 44.5493 	 2.0294 	 52.2904 	 35.3674 	 7.7410 	 2.9000
  0.4000 	 1.5000 	 9.5187 	 9.7488 	 1.6346 	 48.2678 	 1.9903 	 54.0773 	 24.4332 	 5.8095 	 2.9000
  0.4000 	 1.6000 	 9.5831 	 9.7159 	 1.5599 	 54.3590 	 1.9578 	 55.6977 	 5.2274 	 1.3387 	 2.9000
  0.4000 	 1.0000 	 8.9503 	 10.2267 	 2.2666 	 32.7198 	 2.3571 	 42.3897 	 72.1404 	 9.6699 	 3.0000
  0.4000 	 1.1000 	 9.0957 	 10.1444 	 2.1084 	 35.4014 	 2.2610 	 45.1161 	 62.8050 	 9.7146 	 3.0000
  0.4000 	 1.2000 	 9.2168 	 10.0774 	 1.9752 	 38.1654 	 2.1851 	 47.5651 	 53.7518 	 9.3998 	 3.0000
  0.4000 	 1.3000 	 9.3192 	 10.0217 	 1.8611 	 41.0806 	 2.1242 	 49.7697 	 44.6594 	 8.6891 	 3.0000
  0.4000 	 1.4000 	 9.4071 	 9.9747 	 1.7621 	 44.2706 	 2.0746 	 51.7593 	 35.0399 	 7.4887 	 3.0000
  0.4000 	 1.5000 	 9.4832 	 9.9345 	 1.6754 	 48.0379 	 2.0337 	 53.5597 	 23.7681 	 5.5218 	 3.0000
  0.4000 	 1.0000 	 8.8970 	 10.4274 	 2.3242 	 32.3962 	 2.4143 	 41.8328 	 72.2997 	 9.4366 	 3.1000
  0.4000 	 1.1000 	 9.0472 	 10.3402 	 2.1614 	 35.0843 	 2.3142 	 44.5655 	 62.8822 	 9.4812 	 3.1000
  0.4000 	 1.2000 	 9.1724 	 10.2693 	 2.0242 	 37.8563 	 2.2350 	 47.0237 	 53.7305 	 9.1675 	 3.1000
  0.4000 	 1.3000 	 9.2783 	 10.2103 	 1.9069 	 40.7826 	 2.1714 	 49.2393 	 44.5127 	 8.4567 	 3.1000
  0.4000 	 1.4000 	 9.3690 	 10.1606 	 1.8051 	 43.9917 	 2.1195 	 51.2410 	 34.7129 	 7.2493 	 3.1000
  0.4000 	 1.5000 	 9.4477 	 10.1181 	 1.7160 	 47.8081 	 2.0768 	 53.0543 	 23.0948 	 5.2461 	 3.1000
  0.4000 	 1.0000 	 8.8437 	 10.6267 	 2.3815 	 32.0763 	 2.4714 	 41.2914 	 72.4503 	 9.2151 	 3.2000
  0.4000 	 1.1000 	 8.9988 	 10.5345 	 2.2141 	 34.7702 	 2.3671 	 44.0296 	 62.9534 	 9.2594 	 3.2000
  0.4000 	 1.2000 	 9.1279 	 10.4594 	 2.0730 	 37.5493 	 2.2846 	 46.4961 	 53.7059 	 8.9468 	 3.2000
  0.4000 	 1.3000 	 9.2373 	 10.3972 	 1.9524 	 40.4859 	 2.2183 	 48.7220 	 44.3653 	 8.2361 	 3.2000
  0.4000 	 1.4000 	 9.3310 	 10.3447 	 1.8479 	 43.7131 	 2.1642 	 50.7351 	 34.3868 	 7.0220 	 3.2000
  0.4000 	 1.5000 	 9.4122 	 10.2999 	 1.7564 	 47.5791 	 2.1195 	 52.5604 	 22.4125 	 4.9813 	 3.2000
  0.4000 	 1.0000 	 8.7904 	 10.8247 	 2.4387 	 31.7602 	 2.5283 	 40.7645 	 72.5927 	 9.0043 	 3.3000
  0.4000 	 1.1000 	 8.9503 	 10.7273 	 2.2666 	 34.4592 	 2.4199 	 43.5075 	 63.0191 	 9.0483 	 3.3000
  0.4000 	 1.2000 	 9.0835 	 10.6481 	 2.1217 	 37.2447 	 2.3340 	 45.9816 	 53.6787 	 8.7370 	 3.3000
  0.4000 	 1.3000 	 9.1963 	 10.5824 	 1.9978 	 40.1906 	 2.2649 	 48.2170 	 44.2177 	 8.0264 	 3.3000
  0.4000 	 1.4000 	 9.2929 	 10.5271 	 1.8905 	 43.4351 	 2.2086 	 50.2408 	 34.0618 	 6.8058 	 3.3000
  0.4000 	 1.5000 	 9.3766 	 10.4799 	 1.7966 	 47.3511 	 2.1620 	 52.0776 	 21.7207 	 4.7264 	 3.3000
  0.4000 	 1.0000 	 8.7372 	 11.0215 	 2.4957 	 31.4480 	 2.5851 	 40.2514 	 72.7277 	 8.8035 	 3.4000
  0.4000 	 1.1000 	 8.9019 	 10.9188 	 2.3189 	 34.1513 	 2.4725 	 42.9986 	 63.0799 	 8.8472 	 3.4000
  0.4000 	 1.2000 	 9.0391 	 10.8353 	 2.1702 	 36.9425 	 2.3832 	 45.4796 	 53.6490 	 8.5371 	 3.4000
  0.4000 	 1.3000 	 9.1553 	 10.7661 	 2.0430 	 39.8970 	 2.3114 	 47.7238 	 44.0702 	 7.8268 	 3.4000
  0.4000 	 1.4000 	 9.2548 	 10.7079 	 1.9329 	 43.1578 	 2.2527 	 49.7577 	 33.7382 	 6.5998 	 3.4000
  0.4000 	 1.5000 	 9.3411 	 10.6582 	 1.8365 	 47.1248 	 2.2043 	 51.6053 	 21.0185 	 4.4804 	 3.4000
  0.4000 	 1.0000 	 8.6839 	 11.2173 	 2.5526 	 31.1397 	 2.6417 	 39.7515 	 72.8558 	 8.6119 	 3.5000
  0.4000 	 1.1000 	 8.8534 	 11.1090 	 2.3711 	 33.8467 	 2.5249 	 42.5021 	 63.1363 	 8.6554 	 3.5000
  0.4000 	 1.2000 	 8.9947 	 11.0211 	 2.2185 	 36.6429 	 2.4322 	 44.9894 	 53.6174 	 8.3465 	 3.5000
  0.4000 	 1.3000 	 9.1143 	 10.9484 	 2.0880 	 39.6052 	 2.3576 	 47.2418 	 43.9230 	 7.6366 	 3.5000
  0.4000 	 1.4000 	 9.2168 	 10.8872 	 1.9752 	 42.8817 	 2.2967 	 49.2852 	 33.4162 	 6.4035 	 3.5000
  0.4000 	 1.5000 	 9.3056 	 10.8349 	 1.8763 	 46.9006 	 2.2464 	 51.1430 	 20.3048 	 4.2424 	 3.5000
  0.4000 	 1.0000 	 8.6306 	 11.4121 	 2.6093 	 30.8352 	 2.6982 	 39.2641 	 72.9776 	 8.4289 	 3.6000
  0.4000 	 1.1000 	 8.8050 	 11.2982 	 2.4232 	 33.5455 	 2.5771 	 42.0176 	 63.1886 	 8.4721 	 3.6000
  0.4000 	 1.2000 	 8.9503 	 11.2058 	 2.2666 	 36.3461 	 2.4811 	 44.5105 	 53.5840 	 8.1645 	 3.6000
  0.4000 	 1.3000 	 9.0733 	 11.1293 	 2.1329 	 39.3155 	 2.4037 	 46.7705 	 43.7764 	 7.4550 	 3.6000
  0.4000 	 1.4000 	 9.1787 	 11.0650 	 2.0172 	 42.6068 	 2.3405 	 48.8228 	 33.0959 	 6.2160 	 3.6000
  0.4000 	 1.5000 	 9.2701 	 11.0102 	 1.9160 	 46.6788 	 2.2882 	 50.6903 	 19.5783 	 4.0116 	 3.6000
  0.4000 	 1.0000 	 8.5773 	 11.6061 	 2.6659 	 30.5347 	 2.7546 	 38.7886 	 73.0936 	 8.2539 	 3.7000
  0.4000 	 1.1000 	 8.7565 	 11.4863 	 2.4750 	 33.2476 	 2.6292 	 41.5444 	 63.2371 	 8.2969 	 3.7000
  0.4000 	 1.2000 	 8.9059 	 11.3892 	 2.3146 	 36.0520 	 2.5298 	 44.0425 	 53.5492 	 7.9905 	 3.7000
  0.4000 	 1.3000 	 9.0323 	 11.3090 	 2.1776 	 39.0278 	 2.4496 	 46.3094 	 43.6305 	 7.2816 	 3.7000
  0.4000 	 1.4000 	 9.1406 	 11.2416 	 2.0591 	 42.3333 	 2.3840 	 48.3701 	 32.7775 	 6.0368 	 3.7000
  0.4000 	 1.5000 	 9.2345 	 11.1841 	 1.9555 	 46.4599 	 2.3298 	 50.2469 	 18.8375 	 3.7870 	 3.7000
  0.4000 	 1.0000 	 8.5240 	 11.7993 	 2.7223 	 30.2379 	 2.8108 	 38.3244 	 73.2040 	 8.0864 	 3.8000
  0.4000 	 1.1000 	 8.7081 	 11.6734 	 2.5268 	 32.9531 	 2.6812 	 41.0821 	 63.2823 	 8.1290 	 3.8000
  0.4000 	 1.2000 	 8.8615 	 11.5716 	 2.3624 	 35.7608 	 2.5783 	 43.5847 	 53.5131 	 7.8239 	 3.8000
  0.4000 	 1.3000 	 8.9913 	 11.4875 	 2.2222 	 38.7424 	 2.4953 	 45.8581 	 43.4855 	 7.1157 	 3.8000
  0.4000 	 1.4000 	 9.1026 	 11.4168 	 2.1009 	 42.0613 	 2.4274 	 47.9266 	 32.4610 	 5.8653 	 3.8000
  0.4000 	 1.5000 	 9.1990 	 11.3566 	 1.9948 	 46.2443 	 2.3712 	 49.8122 	 18.0803 	 3.5679 	 3.8000
  0.4000 	 1.0000 	 8.4707 	 11.9917 	 2.7786 	 29.9450 	 2.8669 	 37.8710 	 73.3094 	 7.9259 	 3.9000
  0.4000 	 1.1000 	 8.6596 	 11.8597 	 2.5784 	 32.6619 	 2.7331 	 40.6301 	 63.3244 	 7.9682 	 3.9000
  0.4000 	 1.2000 	 8.8171 	 11.7530 	 2.4102 	 35.4724 	 2.6267 	 43.1367 	 53.4760 	 7.6644 	 3.9000
  0.4000 	 1.3000 	 8.9503 	 11.6649 	 2.2666 	 38.4593 	 2.5408 	 45.4162 	 43.3415 	 6.9569 	 3.9000
  0.4000 	 1.4000 	 9.0645 	 11.5909 	 2.1425 	 41.7910 	 2.4706 	 47.4921 	 32.1465 	 5.7012 	 3.9000
  0.4000 	 1.5000 	 9.1635 	 11.5279 	 2.0340 	 46.0325 	 2.4124 	 49.3860 	 17.3045 	 3.3535 	 3.9000
  0.4000 	 1.0000 	 8.4174 	 12.1836 	 2.8348 	 29.6559 	 2.9229 	 37.4278 	 73.4101 	 7.7720 	 4.0000
  0.4000 	 1.1000 	 8.6112 	 12.0452 	 2.6299 	 32.3741 	 2.7848 	 40.1880 	 63.3637 	 7.8139 	 4.0000
  0.4000 	 1.2000 	 8.7727 	 11.9334 	 2.4578 	 35.1869 	 2.6749 	 42.6983 	 53.4380 	 7.5114 	 4.0000
  0.4000 	 1.3000 	 8.9093 	 11.8413 	 2.3109 	 38.1785 	 2.5862 	 44.9833 	 43.1986 	 6.8048 	 4.0000
  0.4000 	 1.4000 	 9.0264 	 11.7639 	 2.1840 	 41.5224 	 2.5136 	 47.0661 	 31.8342 	 5.5437 	 4.0000
  0.4000 	 1.5000 	 9.1279 	 11.6981 	 2.0730 	 45.8250 	 2.4534 	 48.9678 	 16.5073 	 3.1428 	 4.0000
  0.4000 	 1.0000 	 8.3641 	 12.3749 	 2.8909 	 29.3704 	 2.9789 	 36.9946 	 73.5064 	 7.6241 	 4.1000
  0.4000 	 1.1000 	 8.5628 	 12.2300 	 2.6813 	 32.0896 	 2.8364 	 39.7553 	 63.4003 	 7.6657 	 4.1000
  0.4000 	 1.2000 	 8.7283 	 12.1131 	 2.5052 	 34.9043 	 2.7231 	 42.2688 	 53.3993 	 7.3645 	 4.1000
  0.4000 	 1.3000 	 8.8683 	 12.0167 	 2.3551 	 37.9001 	 2.6315 	 44.5590 	 43.0569 	 6.6588 	 4.1000
  0.4000 	 1.4000 	 8.9884 	 11.9359 	 2.2253 	 41.2556 	 2.5565 	 46.6483 	 31.5240 	 5.3927 	 4.1000
  0.4000 	 1.5000 	 9.0924 	 11.8671 	 2.1120 	 45.6225 	 2.4943 	 48.5575 	 15.6852 	 2.9350 	 4.1000
  0.4000 	 1.0000 	 8.3108 	 12.5658 	 2.9468 	 29.0887 	 3.0347 	 36.5707 	 73.5985 	 7.4820 	 4.2000
  0.4000 	 1.1000 	 8.5143 	 12.4141 	 2.7325 	 31.8084 	 2.8879 	 39.3317 	 63.4345 	 7.5233 	 4.2000
  0.4000 	 1.2000 	 8.6839 	 12.2919 	 2.5526 	 34.6246 	 2.7710 	 41.8480 	 53.3600 	 7.2234 	 4.2000
  0.4000 	 1.3000 	 8.8273 	 12.1912 	 2.3992 	 37.6242 	 2.6766 	 44.1429 	 42.9164 	 6.5187 	 4.2000
  0.4000 	 1.4000 	 8.9503 	 12.1068 	 2.2666 	 40.9907 	 2.5992 	 46.2384 	 31.2159 	 5.2477 	 4.2000
  0.4000 	 1.5000 	 9.0569 	 12.0351 	 2.1508 	 45.4256 	 2.5350 	 48.1546 	 14.8337 	 2.7290 	 4.2000
  0.4000 	 1.0000 	 8.2576 	 12.7562 	 3.0027 	 28.8105 	 3.0904 	 36.1558 	 73.6868 	 7.3454 	 4.3000
  0.4000 	 1.1000 	 8.4659 	 12.5977 	 2.7837 	 31.5305 	 2.9393 	 38.9168 	 63.4665 	 7.3863 	 4.3000
  0.4000 	 1.2000 	 8.6395 	 12.4700 	 2.5999 	 34.3478 	 2.8189 	 41.4356 	 53.3203 	 7.0878 	 4.3000
  0.4000 	 1.3000 	 8.7863 	 12.3649 	 2.4431 	 37.3507 	 2.7216 	 43.7348 	 42.7773 	 6.3842 	 4.3000
  0.4000 	 1.4000 	 8.9123 	 12.2769 	 2.3077 	 40.7278 	 2.6418 	 45.8360 	 30.9100 	 5.1083 	 4.3000
  0.4000 	 1.5000 	 9.0214 	 12.2021 	 2.1895 	 45.2353 	 2.5756 	 47.7590 	 13.9471 	 2.5237 	 4.3000
  0.4000 	 1.0000 	 8.2043 	 12.9464 	 3.0585 	 28.5358 	 3.1461 	 35.7496 	 73.7715 	 7.2138 	 4.4000
  0.4000 	 1.1000 	 8.4174 	 12.7807 	 2.8348 	 31.2558 	 2.9906 	 38.5102 	 63.4965 	 7.2544 	 4.4000
  0.4000 	 1.2000 	 8.5951 	 12.6474 	 2.6470 	 34.0739 	 2.8667 	 41.0311 	 53.2802 	 6.9572 	 4.4000
  0.4000 	 1.3000 	 8.7454 	 12.5378 	 2.4870 	 37.0796 	 2.7664 	 43.3344 	 42.6396 	 6.2547 	 4.4000
  0.4000 	 1.4000 	 8.8742 	 12.4461 	 2.3488 	 40.4668 	 2.6842 	 45.4409 	 30.6063 	 4.9742 	 4.4000
  0.4000 	 1.5000 	 8.9858 	 12.3682 	 2.2281 	 45.0526 	 2.6160 	 47.3702 	 13.0179 	 2.3176 	 4.4000
  0.4000 	 1.0000 	 8.1510 	 13.1362 	 3.1142 	 28.2645 	 3.2016 	 35.3516 	 73.8528 	 7.0870 	 4.5000
  0.4000 	 1.1000 	 8.3690 	 12.9632 	 2.8858 	 30.9843 	 3.0418 	 38.1116 	 63.5246 	 7.1273 	 4.5000
  0.4000 	 1.2000 	 8.5506 	 12.8242 	 2.6941 	 33.8028 	 2.9143 	 40.6343 	 53.2399 	 6.8315 	 4.5000
  0.4000 	 1.3000 	 8.7044 	 12.7100 	 2.5307 	 36.8110 	 2.8112 	 42.9412 	 42.5033 	 6.1302 	 4.5000
  0.4000 	 1.4000 	 8.8361 	 12.6145 	 2.3897 	 40.2078 	 2.7265 	 45.0528 	 30.3048 	 4.8451 	 4.5000
  0.4000 	 1.5000 	 8.9503 	 12.5334 	 2.2666 	 44.8793 	 2.6563 	 46.9882 	 12.0359 	 2.1089 	 4.5000
  0.5000 	 1.0000 	 9.4299 	 8.3321 	 1.6870 	 32.6151 	 1.8309 	 48.2741 	 65.5999 	 15.6590 	 2.1000
  0.5000 	 1.1000 	 9.5317 	 8.2875 	 1.5696 	 35.1066 	 1.7706 	 50.8912 	 58.6399 	 15.7846 	 2.1000
  0.5000 	 1.2000 	 9.6164 	 8.2508 	 1.4699 	 37.6417 	 1.7233 	 53.2075 	 52.0823 	 15.5658 	 2.1000
  0.5000 	 1.3000 	 9.6882 	 8.2201 	 1.3841 	 40.2596 	 1.6855 	 55.2659 	 45.7856 	 15.0063 	 2.1000
  0.5000 	 1.4000 	 9.7497 	 8.1941 	 1.3091 	 43.0118 	 1.6550 	 57.1026 	 39.6007 	 14.0908 	 2.1000
  0.5000 	 1.5000 	 9.8029 	 8.1718 	 1.2430 	 45.9750 	 1.6299 	 58.7485 	 33.3418 	 12.7735 	 2.1000
  0.5000 	 1.6000 	 9.8496 	 8.1524 	 1.1840 	 49.2848 	 1.6091 	 60.2295 	 26.7181 	 10.9448 	 2.1000
  0.5000 	 1.7000 	 9.8907 	 8.1354 	 1.1311 	 53.2517 	 1.5916 	 61.5676 	 19.0971 	 8.3159 	 2.1000
  0.5000 	 1.8000 	 9.9273 	 8.1204 	 1.0831 	 59.3278 	 1.5769 	 62.7812 	 7.4976 	 3.4534 	 2.1000
  0.5000 	 1.0000 	 9.3766 	 8.5528 	 1.7477 	 32.3797 	 1.8906 	 47.5264 	 65.9695 	 15.1467 	 2.2000
  0.5000 	 1.1000 	 9.4832 	 8.5045 	 1.6258 	 34.8895 	 1.8264 	 50.1617 	 58.9214 	 15.2722 	 2.2000
  0.5000 	 1.2000 	 9.5720 	 8.4649 	 1.5223 	 37.4431 	 1.7761 	 52.4985 	 52.2664 	 15.0554 	 2.2000
  0.5000 	 1.3000 	 9.6472 	 8.4318 	 1.4333 	 40.0805 	 1.7359 	 54.5784 	 45.8602 	 14.4978 	 2.2000
  0.5000 	 1.4000 	 9.7116 	 8.4037 	 1.3557 	 42.8549 	 1.7033 	 56.4369 	 39.5478 	 13.5820 	 2.2000
  0.5000 	 1.5000 	 9.7674 	 8.3796 	 1.2872 	 45.8468 	 1.6766 	 58.1043 	 33.1311 	 12.2575 	 2.2000
  0.5000 	 1.6000 	 9.8163 	 8.3587 	 1.2262 	 49.2020 	 1.6544 	 59.6062 	 26.2887 	 10.4042 	 2.2000
  0.5000 	 1.7000 	 9.8594 	 8.3404 	 1.1715 	 53.2715 	 1.6357 	 60.9644 	 18.2787 	 7.6929 	 2.2000
  0.5000 	 1.8000 	 9.8977 	 8.3242 	 1.1220 	 60.2762 	 1.6199 	 62.1971 	 4.3138 	 1.9209 	 2.2000
  0.5000 	 1.0000 	 9.3233 	 8.7704 	 1.8080 	 32.1361 	 1.9499 	 46.8060 	 66.3107 	 14.6698 	 2.3000
  0.5000 	 1.1000 	 9.4348 	 8.7184 	 1.6815 	 34.6625 	 1.8819 	 49.4576 	 59.1780 	 14.7951 	 2.3000
  0.5000 	 1.2000 	 9.5276 	 8.6757 	 1.5743 	 37.2330 	 1.8284 	 51.8132 	 52.4287 	 14.5802 	 2.3000
  0.5000 	 1.3000 	 9.6062 	 8.6401 	 1.4821 	 39.8886 	 1.7857 	 53.9130 	 45.9157 	 14.0245 	 2.3000
  0.5000 	 1.4000 	 9.6735 	 8.6099 	 1.4017 	 42.6840 	 1.7511 	 55.7919 	 39.4778 	 13.1079 	 2.3000
  0.5000 	 1.5000 	 9.7319 	 8.5840 	 1.3309 	 45.7038 	 1.7227 	 57.4795 	 32.9036 	 11.7757 	 2.3000
  0.5000 	 1.6000 	 9.7830 	 8.5615 	 1.2679 	 49.1048 	 1.6991 	 59.0012 	 25.8377 	 9.8964 	 2.3000
  0.5000 	 1.7000 	 9.8280 	 8.5418 	 1.2114 	 53.2857 	 1.6792 	 60.3784 	 17.4070 	 7.0928 	 2.3000
  0.5000 	 1.0000 	 9.2701 	 8.9852 	 1.8678 	 31.8863 	 2.0089 	 46.1110 	 66.6268 	 14.2247 	 2.4000
  0.5000 	 1.1000 	 9.3863 	 8.9292 	 1.7367 	 34.4276 	 1.9370 	 48.7773 	 59.4127 	 14.3497 	 2.4000
  0.5000 	 1.2000 	 9.4832 	 8.8834 	 1.6258 	 37.0136 	 1.8804 	 51.1500 	 52.5721 	 14.1364 	 2.4000
  0.5000 	 1.3000 	 9.5652 	 8.8452 	 1.5304 	 39.6860 	 1.8352 	 53.2684 	 45.9548 	 13.5824 	 2.4000
  0.5000 	 1.4000 	 9.6355 	 8.8128 	 1.4473 	 42.5013 	 1.7985 	 55.1663 	 39.3932 	 12.6650 	 2.4000
  0.5000 	 1.5000 	 9.6964 	 8.7850 	 1.3741 	 45.5482 	 1.7683 	 56.8729 	 32.6618 	 11.3247 	 2.4000
  0.5000 	 1.6000 	 9.7497 	 8.7609 	 1.3091 	 48.9956 	 1.7433 	 58.4133 	 25.3676 	 9.4177 	 2.4000
  0.5000 	 1.7000 	 9.7967 	 8.7399 	 1.2508 	 53.2978 	 1.7222 	 59.8087 	 16.4790 	 6.5109 	 2.4000
  0.5000 	 1.0000 	 9.2168 	 9.1974 	 1.9273 	 31.6316 	 2.0676 	 45.4397 	 66.9205 	 13.8081 	 2.5000
  0.5000 	 1.1000 	 9.3379 	 9.1374 	 1.7916 	 34.1865 	 1.9917 	 48.1191 	 59.6281 	 13.9326 	 2.5000
  0.5000 	 1.2000 	 9.4388 	 9.0883 	 1.6768 	 36.7867 	 1.9320 	 50.5076 	 52.6990 	 13.7209 	 2.5000
  0.5000 	 1.3000 	 9.5242 	 9.0474 	 1.5782 	 39.4746 	 1.8842 	 52.6431 	 45.9800 	 13.1685 	 2.5000
  0.5000 	 1.4000 	 9.5974 	 9.0128 	 1.4925 	 42.3087 	 1.8454 	 54.5588 	 39.2966 	 12.2501 	 2.5000
  0.5000 	 1.5000 	 9.6608 	 8.9831 	 1.4170 	 45.3820 	 1.8135 	 56.2835 	 32.4083 	 10.9014 	 2.5000
  0.5000 	 1.6000 	 9.7164 	 8.9573 	 1.3499 	 48.8761 	 1.7870 	 57.8416 	 24.8805 	 8.9654 	 2.5000
  0.5000 	 1.7000 	 9.7653 	 8.9348 	 1.2898 	 53.3119 	 1.7647 	 59.2542 	 15.4891 	 5.9423 	 2.5000
  0.5000 	 1.0000 	 9.1635 	 9.4072 	 1.9864 	 31.3735 	 2.1260 	 44.7906 	 67.1942 	 13.4171 	 2.6000
  0.5000 	 1.1000 	 9.2894 	 9.3431 	 1.8461 	 33.9406 	 2.0461 	 47.4818 	 59.8264 	 13.5411 	 2.6000
  0.5000 	 1.2000 	 9.3944 	 9.2906 	 1.7275 	 36.5537 	 1.9832 	 49.8846 	 52.8116 	 13.3309 	 2.6000
  0.5000 	 1.3000 	 9.4832 	 9.2469 	 1.6258 	 39.2561 	 1.9328 	 52.0360 	 45.9931 	 12.7800 	 2.6000
  0.5000 	 1.4000 	 9.5593 	 9.2100 	 1.5372 	 42.1080 	 1.8919 	 53.9685 	 39.1898 	 11.8605 	 2.6000
  0.5000 	 1.5000 	 9.6253 	 9.1783 	 1.4594 	 45.2068 	 1.8583 	 55.7100 	 32.1448 	 10.5032 	 2.6000
  0.5000 	 1.6000 	 9.6830 	 9.1508 	 1.3902 	 48.7481 	 1.8303 	 57.2850 	 24.3779 	 8.5369 	 2.6000
  0.5000 	 1.7000 	 9.7340 	 9.1268 	 1.3283 	 53.3323 	 1.8067 	 58.7140 	 14.4286 	 5.3817 	 2.6000
  0.5000 	 1.0000 	 9.1102 	 9.6149 	 2.0451 	 31.1130 	 2.1841 	 44.1623 	 67.4499 	 13.0493 	 2.7000
  0.5000 	 1.1000 	 9.2410 	 9.5465 	 1.9003 	 33.6911 	 2.1002 	 46.8639 	 60.0094 	 13.1728 	 2.7000
  0.5000 	 1.2000 	 9.3500 	 9.4905 	 1.7779 	 36.3159 	 2.0341 	 49.2798 	 52.9115 	 12.9639 	 2.7000
  0.5000 	 1.3000 	 9.4422 	 9.4439 	 1.6729 	 39.0316 	 1.9812 	 51.4461 	 45.9960 	 12.4144 	 2.7000
  0.5000 	 1.4000 	 9.5213 	 9.4046 	 1.5817 	 41.9003 	 1.9381 	 53.3942 	 39.0744 	 11.4939 	 2.7000
  0.5000 	 1.5000 	 9.5898 	 9.3708 	 1.5014 	 45.0239 	 1.9027 	 55.1518 	 31.8731 	 10.1278 	 2.7000
  0.5000 	 1.6000 	 9.6497 	 9.3416 	 1.4303 	 48.6128 	 1.8731 	 56.7426 	 23.8611 	 8.1298 	 2.7000
  0.5000 	 1.7000 	 9.7026 	 9.3161 	 1.3665 	 53.3646 	 1.8483 	 58.1873 	 13.2841 	 4.8227 	 2.7000
  0.5000 	 1.0000 	 9.0569 	 9.8206 	 2.1036 	 30.8508 	 2.2420 	 43.5534 	 67.6895 	 12.7026 	 2.8000
  0.5000 	 1.1000 	 9.1925 	 9.7477 	 1.9542 	 33.4388 	 2.1541 	 46.2643 	 60.1789 	 12.8255 	 2.8000
  0.5000 	 1.2000 	 9.3056 	 9.6882 	 1.8280 	 36.0744 	 2.0847 	 48.6923 	 53.0002 	 12.6180 	 2.8000
  0.5000 	 1.3000 	 9.4012 	 9.6386 	 1.7198 	 38.8024 	 2.0291 	 50.8723 	 45.9899 	 12.0699 	 2.8000
  0.5000 	 1.4000 	 9.4832 	 9.5968 	 1.6258 	 41.6869 	 1.9839 	 52.8351 	 38.9519 	 11.1482 	 2.8000
  0.5000 	 1.5000 	 9.5543 	 9.5610 	 1.5432 	 44.8346 	 1.9467 	 54.6078 	 31.5944 	 9.7732 	 2.8000
  0.5000 	 1.6000 	 9.6164 	 9.5299 	 1.4699 	 48.4716 	 1.9156 	 56.2138 	 23.3310 	 7.7422 	 2.8000
  0.5000 	 1.7000 	 9.6713 	 9.5028 	 1.4044 	 53.4162 	 1.8895 	 57.6734 	 12.0349 	 4.2572 	 2.8000
  0.5000 	 1.0000 	 9.0036 	 10.0245 	 2.1619 	 30.5878 	 2.2996 	 42.9630 	 67.9143 	 12.3752 	 2.9000
  0.5000 	 1.1000 	 9.1441 	 9.9470 	 2.0078 	 33.1847 	 2.2077 	 45.6820 	 60.3361 	 12.4974 	 2.9000
  0.5000 	 1.2000 	 9.2612 	 9.8837 	 1.8777 	 35.8299 	 2.1351 	 48.1210 	 53.0790 	 12.2911 	 2.9000
  0.5000 	 1.3000 	 9.3602 	 9.8312 	 1.7663 	 38.5694 	 2.0768 	 50.3138 	 45.9761 	 11.7444 	 2.9000
  0.5000 	 1.4000 	 9.4451 	 9.7868 	 1.6696 	 41.4688 	 2.0294 	 52.2904 	 38.8234 	 10.8216 	 2.9000
  0.5000 	 1.5000 	 9.5187 	 9.7488 	 1.5846 	 44.6397 	 1.9903 	 54.0773 	 31.3100 	 9.4377 	 2.9000
  0.5000 	 1.6000 	 9.5831 	 9.7159 	 1.5093 	 48.3255 	 1.9578 	 55.6977 	 22.7883 	 7.3722 	 2.9000
  0.5000 	 1.7000 	 9.6399 	 9.6872 	 1.4420 	 53.4984 	 1.9304 	 57.1716 	 10.6472 	 3.6732 	 2.9000
  0.5000 	 1.0000 	 8.9503 	 10.2267 	 2.2198 	 30.3244 	 2.3571 	 42.3897 	 68.1258 	 12.0653 	 3.0000
  0.5000 	 1.1000 	 9.0957 	 10.1444 	 2.0611 	 32.9293 	 2.2610 	 45.1161 	 60.4822 	 12.1868 	 3.0000
  0.5000 	 1.2000 	 9.2168 	 10.0774 	 1.9273 	 35.5834 	 2.1851 	 47.5651 	 53.1491 	 11.9817 	 3.0000
  0.5000 	 1.3000 	 9.3192 	 10.0217 	 1.8126 	 38.3333 	 2.1242 	 49.7697 	 45.9557 	 11.4364 	 3.0000
  0.5000 	 1.4000 	 9.4071 	 9.9747 	 1.7131 	 41.2468 	 2.0746 	 51.7593 	 38.6898 	 10.5125 	 3.0000
  0.5000 	 1.5000 	 9.4832 	 9.9345 	 1.6258 	 44.4401 	 2.0337 	 53.5597 	 31.0207 	 9.1196 	 3.0000
  0.5000 	 1.6000 	 9.5498 	 9.8997 	 1.5484 	 48.1754 	 1.9996 	 55.1938 	 22.2334 	 7.0183 	 3.0000
  0.5000 	 1.7000 	 9.6086 	 9.8693 	 1.4792 	 53.6300 	 1.9709 	 56.6812 	 9.0602 	 3.0512 	 3.0000
  0.5000 	 1.0000 	 8.8970 	 10.4274 	 2.2776 	 30.0613 	 2.4143 	 41.8328 	 68.3252 	 11.7716 	 3.1000
  0.5000 	 1.1000 	 9.0472 	 10.3402 	 2.1142 	 32.6732 	 2.3142 	 44.5655 	 60.6185 	 11.8923 	 3.1000
  0.5000 	 1.2000 	 9.1724 	 10.2693 	 1.9765 	 35.3353 	 2.2350 	 47.0237 	 53.2115 	 11.6884 	 3.1000
  0.5000 	 1.3000 	 9.2783 	 10.2103 	 1.8586 	 38.0949 	 2.1714 	 49.2393 	 45.9295 	 11.1444 	 3.1000
  0.5000 	 1.4000 	 9.3690 	 10.1606 	 1.7564 	 41.0215 	 2.1195 	 51.2410 	 38.5521 	 10.2195 	 3.1000
  0.5000 	 1.5000 	 9.4477 	 10.1181 	 1.6666 	 44.2367 	 2.0768 	 53.0543 	 30.7274 	 8.8175 	 3.1000
  0.5000 	 1.6000 	 9.5165 	 10.0814 	 1.5872 	 48.0223 	 2.0411 	 54.7013 	 21.6665 	 6.6791 	 3.1000
  0.5000 	 1.7000 	 9.5773 	 10.0493 	 1.5162 	 53.8509 	 2.0110 	 56.2018 	 7.1455 	 2.3509 	 3.1000
  0.5000 	 1.0000 	 8.8437 	 10.6267 	 2.3351 	 29.7987 	 2.4714 	 41.2914 	 68.5134 	 11.4927 	 3.2000
  0.5000 	 1.1000 	 8.9988 	 10.5345 	 2.1671 	 32.4170 	 2.3671 	 44.0296 	 60.7457 	 11.6126 	 3.2000
  0.5000 	 1.2000 	 9.1279 	 10.4594 	 2.0256 	 35.0862 	 2.2846 	 46.4961 	 53.2668 	 11.4099 	 3.2000
  0.5000 	 1.3000 	 9.2373 	 10.3972 	 1.9044 	 37.8547 	 2.2183 	 48.7220 	 45.8983 	 10.8673 	 3.2000
  0.5000 	 1.4000 	 9.3310 	 10.3447 	 1.7994 	 40.7938 	 2.1642 	 50.7351 	 38.4109 	 9.9413 	 3.2000
  0.5000 	 1.5000 	 9.4122 	 10.2999 	 1.7073 	 44.0301 	 2.1195 	 52.5604 	 30.4307 	 8.5303 	 3.2000
  0.5000 	 1.6000 	 9.4832 	 10.2611 	 1.6258 	 47.8668 	 2.0823 	 54.2199 	 21.0876 	 6.3531 	 3.2000
  0.5000 	 1.7000 	 9.5459 	 10.2273 	 1.5529 	 54.2831 	 2.0509 	 55.7327 	 4.5065 	 1.4496 	 3.2000
  0.5000 	 1.0000 	 8.7904 	 10.8247 	 2.3924 	 29.5370 	 2.5283 	 40.7645 	 68.6914 	 11.2275 	 3.3000
  0.5000 	 1.1000 	 8.9503 	 10.7273 	 2.2198 	 32.1609 	 2.4199 	 43.5075 	 60.8647 	 11.3466 	 3.3000
  0.5000 	 1.2000 	 9.0835 	 10.6481 	 2.0744 	 34.8366 	 2.3340 	 45.9816 	 53.3159 	 11.1450 	 3.3000
  0.5000 	 1.3000 	 9.1963 	 10.5824 	 1.9500 	 37.6133 	 2.2649 	 48.2170 	 45.8627 	 10.6037 	 3.3000
  0.5000 	 1.4000 	 9.2929 	 10.5271 	 1.8422 	 40.5639 	 2.2086 	 50.2408 	 38.2669 	 9.6769 	 3.3000
  0.5000 	 1.5000 	 9.3766 	 10.4799 	 1.7477 	 43.8207 	 2.1620 	 52.0776 	 30.1314 	 8.2568 	 3.3000
  0.5000 	 1.6000 	 9.4499 	 10.4391 	 1.6641 	 47.7097 	 2.1232 	 53.7488 	 20.4965 	 6.0391 	 3.3000
  0.5000 	 1.0000 	 8.7372 	 11.0215 	 2.4496 	 29.2765 	 2.5851 	 40.2514 	 68.8601 	 10.9750 	 3.4000
  0.5000 	 1.1000 	 8.9019 	 10.9188 	 2.2723 	 31.9053 	 2.4725 	 42.9986 	 60.9762 	 11.0932 	 3.4000
  0.5000 	 1.2000 	 9.0391 	 10.8353 	 2.1231 	 34.5869 	 2.3832 	 45.4796 	 53.3595 	 10.8927 	 3.4000
  0.5000 	 1.3000 	 9.1553 	 10.7661 	 1.9954 	 37.3709 	 2.3114 	 47.7238 	 45.8234 	 10.3528 	 3.4000
  0.5000 	 1.4000 	 9.2548 	 10.7079 	 1.8848 	 40.3325 	 2.2527 	 49.7577 	 38.1206 	 9.4252 	 3.4000
  0.5000 	 1.5000 	 9.3411 	 10.6582 	 1.7879 	 43.6092 	 2.2043 	 51.6053 	 29.8298 	 7.9961 	 3.4000
  0.5000 	 1.6000 	 9.4166 	 10.6153 	 1.7022 	 47.5517 	 2.1639 	 53.2878 	 19.8928 	 5.7360 	 3.4000
  0.5000 	 1.0000 	 8.6839 	 11.2173 	 2.5066 	 29.0174 	 2.6417 	 39.7515 	 69.0202 	 10.7341 	 3.5000
  0.5000 	 1.1000 	 8.8534 	 11.1090 	 2.3247 	 31.6506 	 2.5249 	 42.5021 	 61.0809 	 10.8516 	 3.5000
  0.5000 	 1.2000 	 8.9947 	 11.0211 	 2.1715 	 34.3373 	 2.4322 	 44.9894 	 53.3980 	 10.6521 	 3.5000
  0.5000 	 1.3000 	 9.1143 	 10.9484 	 2.0406 	 37.1281 	 2.3576 	 47.2418 	 45.7808 	 10.1137 	 3.5000
  0.5000 	 1.4000 	 9.2168 	 10.8872 	 1.9273 	 40.0999 	 2.2967 	 49.2852 	 37.9726 	 9.1852 	 3.5000
  0.5000 	 1.5000 	 9.3056 	 10.8349 	 1.8280 	 43.3959 	 2.2464 	 51.1430 	 29.5264 	 7.7471 	 3.5000
  0.5000 	 1.6000 	 9.3833 	 10.7898 	 1.7402 	 47.3934 	 2.2043 	 52.8362 	 19.2759 	 5.4428 	 3.5000
  0.5000 	 1.0000 	 8.6306 	 11.4121 	 2.5634 	 28.7599 	 2.6982 	 39.2641 	 69.1722 	 10.5042 	 3.6000
  0.5000 	 1.1000 	 8.8050 	 11.2982 	 2.3768 	 31.3968 	 2.5771 	 42.0176 	 61.1793 	 10.6208 	 3.6000
  0.5000 	 1.2000 	 8.9503 	 11.2058 	 2.2198 	 34.0881 	 2.4811 	 44.5105 	 53.4320 	 10.4224 	 3.6000
  0.5000 	 1.3000 	 9.0733 	 11.1293 	 2.0857 	 36.8851 	 2.4037 	 46.7705 	 45.7353 	 9.8854 	 3.6000
  0.5000 	 1.4000 	 9.1787 	 11.0650 	 1.9695 	 39.8666 	 2.3405 	 48.8228 	 37.8231 	 8.9562 	 3.6000
  0.5000 	 1.5000 	 9.2701 	 11.0102 	 1.8678 	 43.1812 	 2.2882 	 50.6903 	 29.2215 	 7.5091 	 3.6000
  0.5000 	 1.6000 	 9.3500 	 10.9629 	 1.7779 	 47.2353 	 2.2445 	 52.3937 	 18.6451 	 5.1584 	 3.6000
  0.5000 	 1.0000 	 8.5773 	 11.6061 	 2.6201 	 28.5041 	 2.7546 	 38.7886 	 69.3169 	 10.2845 	 3.7000
  0.5000 	 1.1000 	 8.7565 	 11.4863 	 2.4288 	 31.1443 	 2.6292 	 41.5444 	 61.2720 	 10.4002 	 3.7000
  0.5000 	 1.2000 	 8.9059 	 11.3892 	 2.2680 	 33.8396 	 2.5298 	 44.0425 	 53.4619 	 10.2028 	 3.7000
  0.5000 	 1.3000 	 9.0323 	 11.3090 	 2.1305 	 36.6422 	 2.4496 	 46.3094 	 45.6875 	 9.6672 	 3.7000
  0.5000 	 1.4000 	 9.1406 	 11.2416 	 2.0116 	 39.6326 	 2.3840 	 48.3701 	 37.6725 	 8.7374 	 3.7000
  0.5000 	 1.5000 	 9.2345 	 11.1841 	 1.9075 	 42.9655 	 2.3298 	 50.2469 	 28.9156 	 7.2814 	 3.7000
  0.5000 	 1.6000 	 9.3167 	 11.1345 	 1.8155 	 47.0781 	 2.2844 	 51.9600 	 17.9992 	 4.8819 	 3.7000
  0.5000 	 1.0000 	 8.5240 	 11.7993 	 2.6766 	 28.2502 	 2.8108 	 38.3244 	 69.4548 	 10.0742 	 3.8000
  0.5000 	 1.1000 	 8.7081 	 11.6734 	 2.4807 	 30.8931 	 2.6812 	 41.0821 	 61.3594 	 10.1890 	 3.8000
  0.5000 	 1.2000 	 8.8615 	 11.5716 	 2.3159 	 33.5920 	 2.5783 	 43.5847 	 53.4882 	 9.9927 	 3.8000
  0.5000 	 1.3000 	 8.9913 	 11.4875 	 2.1753 	 36.3997 	 2.4953 	 45.8581 	 45.6375 	 9.4585 	 3.8000
  0.5000 	 1.4000 	 9.1026 	 11.4168 	 2.0535 	 39.3985 	 2.4274 	 47.9266 	 37.5212 	 8.5282 	 3.8000
  0.5000 	 1.5000 	 9.1990 	 11.3566 	 1.9470 	 42.7489 	 2.3712 	 49.8122 	 28.6088 	 7.0633 	 3.8000
  0.5000 	 1.6000 	 9.2834 	 11.3047 	 1.8529 	 46.9223 	 2.3242 	 51.5346 	 17.3370 	 4.6123 	 3.8000
  0.5000 	 1.0000 	 8.4707 	 11.9917 	 2.7330 	 27.9983 	 2.8669 	 37.8710 	 69.5862 	 9.8727 	 3.9000
  0.5000 	 1.1000 	 8.6596 	 11.8597 	 2.5324 	 30.6435 	 2.7331 	 40.6301 	 61.4420 	 9.9866 	 3.9000
  0.5000 	 1.2000 	 8.8171 	 11.7530 	 2.3638 	 33.3454 	 2.6267 	 43.1367 	 53.5111 	 9.7913 	 3.9000
  0.5000 	 1.3000 	 8.9503 	 11.6649 	 2.2198 	 36.1576 	 2.5408 	 45.4162 	 45.5857 	 9.2586 	 3.9000
  0.5000 	 1.4000 	 9.0645 	 11.5909 	 2.0953 	 39.1643 	 2.4706 	 47.4921 	 37.3694 	 8.3278 	 3.9000
  0.5000 	 1.5000 	 9.1635 	 11.5279 	 1.9864 	 42.5319 	 2.4124 	 49.3860 	 28.3013 	 6.8541 	 3.9000
  0.5000 	 1.6000 	 9.2501 	 11.4737 	 1.8902 	 46.7687 	 2.3637 	 51.1172 	 16.6567 	 4.3486 	 3.9000
  0.5000 	 1.0000 	 8.4174 	 12.1836 	 2.7893 	 27.7484 	 2.9229 	 37.4278 	 69.7118 	 9.6795 	 4.0000
  0.5000 	 1.1000 	 8.6112 	 12.0452 	 2.5840 	 30.3954 	 2.7848 	 40.1880 	 61.5200 	 9.7925 	 4.0000
  0.5000 	 1.2000 	 8.7727 	 11.9334 	 2.4115 	 33.1000 	 2.6749 	 42.6983 	 53.5310 	 9.5982 	 4.0000
  0.5000 	 1.3000 	 8.9093 	 11.8413 	 2.2643 	 35.9163 	 2.5862 	 44.9833 	 45.5324 	 9.0670 	 4.0000
  0.5000 	 1.4000 	 9.0264 	 11.7639 	 2.1369 	 38.9303 	 2.5136 	 47.0661 	 37.2173 	 8.1358 	 4.0000
  0.5000 	 1.5000 	 9.1279 	 11.6981 	 2.0256 	 42.3146 	 2.4534 	 48.9678 	 27.9934 	 6.6533 	 4.0000
  0.5000 	 1.6000 	 9.2168 	 11.6414 	 1.9273 	 46.6178 	 2.4031 	 50.7076 	 15.9563 	 4.0898 	 4.0000
  0.5000 	 1.0000 	 8.3641 	 12.3749 	 2.8455 	 27.5005 	 2.9789 	 36.9946 	 69.8318 	 9.4940 	 4.1000
  0.5000 	 1.1000 	 8.5628 	 12.2300 	 2.6355 	 30.1491 	 2.8364 	 39.7553 	 61.5939 	 9.6062 	 4.1000
  0.5000 	 1.2000 	 8.7283 	 12.1131 	 2.4591 	 32.8559 	 2.7231 	 42.2688 	 53.5481 	 9.4129 	 4.1000
  0.5000 	 1.3000 	 8.8683 	 12.0167 	 2.3086 	 35.6758 	 2.6315 	 44.5590 	 45.4779 	 8.8832 	 4.1000
  0.5000 	 1.4000 	 8.9884 	 11.9359 	 2.1784 	 38.6966 	 2.5565 	 46.6483 	 37.0652 	 7.9517 	 4.1000
  0.5000 	 1.5000 	 9.0924 	 11.8671 	 2.0647 	 42.0972 	 2.4943 	 48.5575 	 27.6853 	 6.4603 	 4.1000
  0.5000 	 1.6000 	 9.1835 	 11.8080 	 1.9642 	 46.4703 	 2.4423 	 50.3053 	 15.2332 	 3.8350 	 4.1000
  0.5000 	 1.0000 	 8.3108 	 12.5658 	 2.9015 	 27.2548 	 3.0347 	 36.5707 	 69.9467 	 9.3158 	 4.2000
  0.5000 	 1.1000 	 8.5143 	 12.4141 	 2.6869 	 29.9046 	 2.8879 	 39.3317 	 61.6639 	 9.4271 	 4.2000
  0.5000 	 1.2000 	 8.6839 	 12.2919 	 2.5066 	 32.6133 	 2.7710 	 41.8480 	 53.5628 	 9.2348 	 4.2000
  0.5000 	 1.3000 	 8.8273 	 12.1912 	 2.3528 	 35.4363 	 2.6766 	 44.1429 	 45.4222 	 8.7066 	 4.2000
  0.5000 	 1.4000 	 8.9503 	 12.1068 	 2.2198 	 38.4635 	 2.5992 	 46.2384 	 36.9132 	 7.7749 	 4.2000
  0.5000 	 1.5000 	 9.0569 	 12.0351 	 2.1036 	 41.8798 	 2.5350 	 48.1546 	 27.3770 	 6.2748 	 4.2000
  0.5000 	 1.6000 	 9.1502 	 11.9734 	 2.0011 	 46.3271 	 2.4813 	 49.9101 	 14.4841 	 3.5830 	 4.2000
  0.5000 	 1.0000 	 8.2576 	 12.7562 	 2.9575 	 27.0113 	 3.0904 	 36.1558 	 70.0567 	 9.1445 	 4.3000
  0.5000 	 1.1000 	 8.4659 	 12.5977 	 2.7381 	 29.6619 	 2.9393 	 38.9168 	 61.7303 	 9.2549 	 4.3000
  0.5000 	 1.2000 	 8.6395 	 12.4700 	 2.5539 	 32.3720 	 2.8189 	 41.4356 	 53.5752 	 9.0635 	 4.3000
  0.5000 	 1.3000 	 8.7863 	 12.3649 	 2.3968 	 35.1979 	 2.7216 	 43.7348 	 45.3655 	 8.5369 	 4.3000
  0.5000 	 1.4000 	 8.9123 	 12.2769 	 2.2611 	 38.2309 	 2.6418 	 45.8360 	 36.7614 	 7.6051 	 4.3000
  0.5000 	 1.5000 	 9.0214 	 12.2021 	 2.1425 	 41.6627 	 2.5756 	 47.7590 	 27.0687 	 6.0963 	 4.3000
  0.5000 	 1.6000 	 9.1168 	 12.1378 	 2.0378 	 46.1893 	 2.5201 	 49.5218 	 13.7049 	 3.3326 	 4.3000
  0.5000 	 1.0000 	 8.2043 	 12.9464 	 3.0133 	 26.7700 	 3.1461 	 35.7496 	 70.1623 	 8.9796 	 4.4000
  0.5000 	 1.1000 	 8.4174 	 12.7807 	 2.7893 	 29.4211 	 2.9906 	 38.5102 	 61.7934 	 9.0891 	 4.4000
  0.5000 	 1.2000 	 8.5951 	 12.6474 	 2.6012 	 32.1324 	 2.8667 	 41.0311 	 53.5855 	 8.8987 	 4.4000
  0.5000 	 1.3000 	 8.7454 	 12.5378 	 2.4408 	 34.9607 	 2.7664 	 43.3344 	 45.3082 	 8.3737 	 4.4000
  0.5000 	 1.4000 	 8.8742 	 12.4461 	 2.3022 	 37.9992 	 2.6842 	 45.4409 	 36.6101 	 7.4418 	 4.4000
  0.5000 	 1.5000 	 8.9858 	 12.3682 	 2.1812 	 41.4460 	 2.6160 	 47.3702 	 26.7605 	 5.9243 	 4.4000
  0.5000 	 1.6000 	 9.0835 	 12.3013 	 2.0744 	 46.0579 	 2.5588 	 49.1401 	 12.8901 	 3.0823 	 4.4000
  0.5000 	 1.0000 	 8.1510 	 13.1362 	 3.0691 	 26.5308 	 3.2016 	 35.3516 	 70.2635 	 8.8208 	 4.5000
  0.5000 	 1.1000 	 8.3690 	 12.9632 	 2.8404 	 29.1822 	 3.0418 	 38.1116 	 61.8534 	 8.9294 	 4.5000
  0.5000 	 1.2000 	 8.5506 	 12.8242 	 2.6483 	 31.8944 	 2.9143 	 40.6343 	 53.5940 	 8.7399 	 4.5000
  0.5000 	 1.3000 	 8.7044 	 12.7100 	 2.4847 	 34.7247 	 2.8112 	 42.9412 	 45.2502 	 8.2165 	 4.5000
  0.5000 	 1.4000 	 8.8361 	 12.6145 	 2.3433 	 37.7682 	 2.7265 	 45.0528 	 36.4593 	 7.2846 	 4.5000
  0.5000 	 1.5000 	 8.9503 	 12.5334 	 2.2198 	 41.2297 	 2.6563 	 46.9882 	 26.4524 	 5.7585 	 4.5000
  0.5000 	 1.6000 	 9.0502 	 12.4638 	 2.1109 	 45.9345 	 2.5974 	 48.7648 	 12.0326 	 2.8303 	 4.5000
  0.6000 	 1.0000 	 9.4299 	 8.3321 	 1.6290 	 29.4451 	 1.8309 	 48.2741 	 61.1930 	 18.8290 	 2.1000
  0.6000 	 1.1000 	 9.5317 	 8.2875 	 1.5105 	 31.8609 	 1.7706 	 50.8912 	 55.1701 	 19.0303 	 2.1000
  0.6000 	 1.2000 	 9.6164 	 8.2508 	 1.4097 	 34.3182 	 1.7233 	 53.2075 	 49.5183 	 18.8893 	 2.1000
  0.6000 	 1.3000 	 9.6882 	 8.2201 	 1.3226 	 36.8514 	 1.6855 	 55.2659 	 44.1345 	 18.4145 	 2.1000
  0.6000 	 1.4000 	 9.7497 	 8.1941 	 1.2465 	 39.5023 	 1.6550 	 57.1026 	 38.9157 	 17.6003 	 2.1000
  0.6000 	 1.5000 	 9.8029 	 8.1718 	 1.1791 	 42.3278 	 1.6299 	 58.7485 	 33.7473 	 16.4207 	 2.1000
  0.6000 	 1.6000 	 9.8496 	 8.1524 	 1.1189 	 45.4146 	 1.6091 	 60.2295 	 28.4788 	 14.8150 	 2.1000
  0.6000 	 1.7000 	 9.8907 	 8.1354 	 1.0646 	 48.9173 	 1.5916 	 61.5676 	 22.8671 	 12.6503 	 2.1000
  0.6000 	 1.8000 	 9.9273 	 8.1204 	 1.0154 	 53.1930 	 1.5769 	 62.7812 	 16.3725 	 9.5882 	 2.1000
  0.6000 	 1.9000 	 9.9600 	 8.1070 	 0.9704 	 59.9154 	 1.5643 	 63.8859 	 6.4297 	 3.9705 	 2.1000
  0.6000 	 1.0000 	 9.3766 	 8.5528 	 1.6902 	 29.3234 	 1.8906 	 47.5264 	 61.6416 	 18.2030 	 2.2000
  0.6000 	 1.1000 	 9.4832 	 8.5045 	 1.5672 	 31.7580 	 1.8264 	 50.1617 	 55.5513 	 18.4037 	 2.2000
  0.6000 	 1.2000 	 9.5720 	 8.4649 	 1.4627 	 34.2328 	 1.7761 	 52.4985 	 49.8256 	 18.2657 	 2.2000
  0.6000 	 1.3000 	 9.6472 	 8.4318 	 1.3726 	 36.7823 	 1.7359 	 54.5784 	 44.3605 	 17.7960 	 2.2000
  0.6000 	 1.4000 	 9.7116 	 8.4037 	 1.2938 	 39.4491 	 1.7033 	 56.4369 	 39.0513 	 16.9878 	 2.2000
  0.6000 	 1.5000 	 9.7674 	 8.3796 	 1.2242 	 42.2911 	 1.6766 	 58.1043 	 33.7786 	 15.8132 	 2.2000
  0.6000 	 1.6000 	 9.8163 	 8.3587 	 1.1620 	 45.3979 	 1.6544 	 59.6062 	 28.3829 	 14.2083 	 2.2000
  0.6000 	 1.7000 	 9.8594 	 8.3404 	 1.1061 	 48.9333 	 1.6357 	 60.9644 	 22.5977 	 12.0311 	 2.2000
  0.6000 	 1.8000 	 9.8977 	 8.3242 	 1.0553 	 53.2908 	 1.6199 	 62.1971 	 15.8020 	 8.9064 	 2.2000
  0.6000 	 1.9000 	 9.9320 	 8.3098 	 1.0090 	 60.8350 	 1.6065 	 63.3201 	 4.1817 	 2.4852 	 2.2000
  0.6000 	 1.0000 	 9.3233 	 8.7704 	 1.7509 	 29.1848 	 1.9499 	 46.8060 	 62.0552 	 17.6211 	 2.3000
  0.6000 	 1.1000 	 9.4348 	 8.7184 	 1.6234 	 31.6366 	 1.8819 	 49.4576 	 55.8998 	 17.8211 	 2.3000
  0.6000 	 1.2000 	 9.5276 	 8.6757 	 1.5152 	 34.1275 	 1.8284 	 51.8132 	 50.1021 	 17.6857 	 2.3000
  0.6000 	 1.3000 	 9.6062 	 8.6401 	 1.4220 	 36.6924 	 1.7857 	 53.9130 	 44.5574 	 17.2206 	 2.3000
  0.6000 	 1.4000 	 9.6735 	 8.6099 	 1.3405 	 39.3745 	 1.7511 	 55.7919 	 39.1587 	 16.4174 	 2.3000
  0.6000 	 1.5000 	 9.7319 	 8.5840 	 1.2686 	 42.2330 	 1.7227 	 57.4795 	 33.7819 	 15.2465 	 2.3000
  0.6000 	 1.6000 	 9.7830 	 8.5615 	 1.2045 	 45.3610 	 1.6991 	 59.0012 	 28.2571 	 13.6402 	 2.3000
  0.6000 	 1.7000 	 9.8280 	 8.5418 	 1.1469 	 48.9322 	 1.6792 	 60.3784 	 22.2921 	 11.4462 	 2.3000
  0.6000 	 1.8000 	 9.8681 	 8.5244 	 1.0946 	 53.3843 	 1.6624 	 61.6295 	 15.1672 	 8.2452 	 2.3000
  0.6000 	 1.0000 	 9.2701 	 8.9852 	 1.8111 	 29.0323 	 2.0089 	 46.1110 	 62.4379 	 17.0787 	 2.4000
  0.6000 	 1.1000 	 9.3863 	 8.9292 	 1.6791 	 31.4996 	 1.9370 	 48.7773 	 56.2197 	 17.2777 	 2.4000
  0.6000 	 1.2000 	 9.4832 	 8.8834 	 1.5672 	 34.0054 	 1.8804 	 51.1500 	 50.3519 	 17.1446 	 2.4000
  0.6000 	 1.3000 	 9.5652 	 8.8452 	 1.4708 	 36.5848 	 1.8352 	 53.2684 	 44.7291 	 16.6836 	 2.4000
  0.6000 	 1.4000 	 9.6355 	 8.8128 	 1.3867 	 39.2815 	 1.7985 	 55.1663 	 39.2420 	 15.8848 	 2.4000
  0.6000 	 1.5000 	 9.6964 	 8.7850 	 1.3126 	 42.1565 	 1.7683 	 56.8729 	 33.7613 	 14.7165 	 2.4000
  0.6000 	 1.6000 	 9.7497 	 8.7609 	 1.2465 	 45.3065 	 1.7433 	 58.4133 	 28.1060 	 13.1069 	 2.4000
  0.6000 	 1.7000 	 9.7967 	 8.7399 	 1.1871 	 48.9162 	 1.7222 	 59.8087 	 21.9546 	 10.8925 	 2.4000
  0.6000 	 1.8000 	 9.8385 	 8.7212 	 1.1333 	 53.4765 	 1.7044 	 61.0772 	 14.4684 	 7.6008 	 2.4000
  0.6000 	 1.0000 	 9.2168 	 9.1974 	 1.8710 	 28.8683 	 2.0676 	 45.4397 	 62.7932 	 16.5714 	 2.5000
  0.6000 	 1.1000 	 9.3379 	 9.1374 	 1.7344 	 31.3497 	 1.9917 	 48.1191 	 56.5142 	 16.7694 	 2.5000
  0.6000 	 1.2000 	 9.4388 	 9.0883 	 1.6187 	 33.8691 	 1.9320 	 50.5076 	 50.5782 	 16.6384 	 2.5000
  0.6000 	 1.3000 	 9.5242 	 9.0474 	 1.5192 	 36.4620 	 1.8842 	 52.6431 	 44.8790 	 16.1810 	 2.5000
  0.6000 	 1.4000 	 9.5974 	 9.0128 	 1.4325 	 39.1728 	 1.8454 	 54.5588 	 39.3046 	 15.3860 	 2.5000
  0.6000 	 1.5000 	 9.6608 	 8.9831 	 1.3560 	 42.0640 	 1.8135 	 56.2835 	 33.7203 	 14.2194 	 2.5000
  0.6000 	 1.6000 	 9.7164 	 8.9573 	 1.2879 	 45.2365 	 1.7870 	 57.8416 	 27.9331 	 12.6051 	 2.5000
  0.6000 	 1.7000 	 9.7653 	 8.9348 	 1.2268 	 48.8873 	 1.7647 	 59.2542 	 21.5888 	 10.3669 	 2.5000
  0.6000 	 1.8000 	 9.8089 	 8.9149 	 1.1715 	 53.5709 	 1.7458 	 60.5394 	 13.7030 	 6.9685 	 2.5000
  0.6000 	 1.0000 	 9.1635 	 9.4072 	 1.9304 	 28.6947 	 2.1260 	 44.7906 	 63.1239 	 16.0959 	 2.6000
  0.6000 	 1.1000 	 9.2894 	 9.3431 	 1.7893 	 31.1890 	 2.0461 	 47.4818 	 56.7862 	 16.2928 	 2.6000
  0.6000 	 1.2000 	 9.3944 	 9.2906 	 1.6699 	 33.7209 	 1.9832 	 49.8846 	 50.7840 	 16.1636 	 2.6000
  0.6000 	 1.3000 	 9.4832 	 9.2469 	 1.5672 	 36.3264 	 1.9328 	 52.0360 	 45.0099 	 15.7096 	 2.6000
  0.6000 	 1.4000 	 9.5593 	 9.2100 	 1.4778 	 39.0506 	 1.8919 	 53.9685 	 39.3493 	 14.9179 	 2.6000
  0.6000 	 1.5000 	 9.6253 	 9.1783 	 1.3990 	 41.9577 	 1.8583 	 55.7100 	 33.6618 	 13.7523 	 2.6000
  0.6000 	 1.6000 	 9.6830 	 9.1508 	 1.3289 	 45.1530 	 1.8303 	 57.2850 	 27.7414 	 12.1320 	 2.6000
  0.6000 	 1.7000 	 9.7340 	 9.1268 	 1.2660 	 48.8471 	 1.8067 	 58.7140 	 21.1974 	 9.8669 	 2.6000
  0.6000 	 1.8000 	 9.7793 	 9.1056 	 1.2092 	 53.6716 	 1.7868 	 60.0151 	 12.8661 	 6.3434 	 2.6000
  0.6000 	 1.0000 	 9.1102 	 9.6149 	 1.9895 	 28.5133 	 2.1841 	 44.1623 	 63.4327 	 15.6490 	 2.7000
  0.6000 	 1.1000 	 9.2410 	 9.5465 	 1.8438 	 31.0192 	 2.1002 	 46.8639 	 57.0382 	 15.8447 	 2.7000
  0.6000 	 1.2000 	 9.3500 	 9.4905 	 1.7206 	 33.5626 	 2.0341 	 49.2798 	 50.9714 	 15.7172 	 2.7000
  0.6000 	 1.3000 	 9.4422 	 9.4439 	 1.6148 	 36.1798 	 1.9812 	 51.4461 	 45.1240 	 15.2662 	 2.7000
  0.6000 	 1.4000 	 9.5213 	 9.4046 	 1.5227 	 38.9168 	 1.9381 	 53.3942 	 39.3785 	 14.4774 	 2.7000
  0.6000 	 1.5000 	 9.5898 	 9.3708 	 1.4416 	 41.8395 	 1.9027 	 55.1518 	 33.5884 	 13.3123 	 2.7000
  0.6000 	 1.6000 	 9.6497 	 9.3416 	 1.3695 	 45.0577 	 1.8731 	 56.7426 	 27.5336 	 11.6850 	 2.7000
  0.6000 	 1.7000 	 9.7026 	 9.3161 	 1.3049 	 48.7972 	 1.8483 	 58.1873 	 20.7826 	 9.3901 	 2.7000
  0.6000 	 1.8000 	 9.7497 	 9.2935 	 1.2465 	 53.7842 	 1.8273 	 59.5036 	 11.9485 	 5.7194 	 2.7000
  0.6000 	 1.0000 	 9.0569 	 9.8206 	 2.0482 	 28.3254 	 2.2420 	 43.5534 	 63.7217 	 15.2280 	 2.8000
  0.6000 	 1.1000 	 9.1925 	 9.7477 	 1.8980 	 30.8418 	 2.1541 	 46.2643 	 57.2723 	 15.4225 	 2.8000
  0.6000 	 1.2000 	 9.3056 	 9.6882 	 1.7710 	 33.3958 	 2.0847 	 48.6923 	 51.1427 	 15.2965 	 2.8000
  0.6000 	 1.3000 	 9.4012 	 9.6386 	 1.6620 	 36.0239 	 2.0291 	 50.8723 	 45.2235 	 14.8484 	 2.8000
  0.6000 	 1.4000 	 9.4832 	 9.5968 	 1.5672 	 38.7729 	 1.9839 	 52.8351 	 39.3942 	 14.0622 	 2.8000
  0.6000 	 1.5000 	 9.5543 	 9.5610 	 1.4838 	 41.7107 	 1.9467 	 54.6078 	 33.5020 	 12.8971 	 2.8000
  0.6000 	 1.6000 	 9.6164 	 9.5299 	 1.4097 	 44.9520 	 1.9156 	 56.2138 	 27.3117 	 11.2618 	 2.8000
  0.6000 	 1.7000 	 9.6713 	 9.5028 	 1.3433 	 48.7390 	 1.8895 	 57.6734 	 20.3463 	 8.9344 	 2.8000
  0.6000 	 1.8000 	 9.7201 	 9.4789 	 1.2833 	 53.9158 	 1.8674 	 59.0042 	 10.9356 	 5.0884 	 2.8000
  0.6000 	 1.0000 	 9.0036 	 10.0245 	 2.1067 	 28.1322 	 2.2996 	 42.9630 	 63.9927 	 14.8308 	 2.9000
  0.6000 	 1.1000 	 9.1441 	 9.9470 	 1.9519 	 30.6581 	 2.2077 	 45.6820 	 57.4902 	 15.0239 	 2.9000
  0.6000 	 1.2000 	 9.2612 	 9.8837 	 1.8211 	 33.2217 	 2.1351 	 48.1210 	 51.2996 	 14.8993 	 2.9000
  0.6000 	 1.3000 	 9.3602 	 9.8312 	 1.7089 	 35.8599 	 2.0768 	 50.3138 	 45.3101 	 14.4539 	 2.9000
  0.6000 	 1.4000 	 9.4451 	 9.7868 	 1.6114 	 38.6203 	 2.0294 	 52.2904 	 39.3983 	 13.6701 	 2.9000
  0.6000 	 1.5000 	 9.5187 	 9.7488 	 1.5256 	 41.5728 	 1.9903 	 54.0773 	 33.4044 	 12.5045 	 2.9000
  0.6000 	 1.6000 	 9.5831 	 9.7159 	 1.4495 	 44.8371 	 1.9578 	 55.6977 	 27.0774 	 10.8606 	 2.9000
  0.6000 	 1.7000 	 9.6399 	 9.6872 	 1.3813 	 48.6737 	 1.9304 	 57.1716 	 19.8896 	 8.4979 	 2.9000
  0.6000 	 1.8000 	 9.6904 	 9.6618 	 1.3198 	 54.0771 	 1.9071 	 58.5163 	 9.8030 	 4.4392 	 2.9000
  0.6000 	 1.0000 	 8.9503 	 10.2267 	 2.1649 	 27.9347 	 2.3571 	 42.3897 	 64.2476 	 14.4551 	 3.0000
  0.6000 	 1.1000 	 9.0957 	 10.1444 	 2.0055 	 30.4692 	 2.2610 	 45.1161 	 57.6936 	 14.6469 	 3.0000
  0.6000 	 1.2000 	 9.2168 	 10.0774 	 1.8710 	 33.0415 	 2.1851 	 47.5651 	 51.4435 	 14.5236 	 3.0000
  0.6000 	 1.3000 	 9.3192 	 10.0217 	 1.7556 	 35.6890 	 2.1242 	 49.7697 	 45.3853 	 14.0807 	 3.0000
  0.6000 	 1.4000 	 9.4071 	 9.9747 	 1.6553 	 38.4602 	 2.0746 	 51.7593 	 39.3920 	 13.2990 	 3.0000
  0.6000 	 1.5000 	 9.4832 	 9.9345 	 1.5672 	 41.4270 	 2.0337 	 53.5597 	 33.2972 	 12.1327 	 3.0000
  0.6000 	 1.6000 	 9.5498 	 9.8997 	 1.4890 	 44.7143 	 1.9996 	 55.1938 	 26.8324 	 10.4795 	 3.0000
  0.6000 	 1.7000 	 9.6086 	 9.8693 	 1.4191 	 48.6024 	 1.9709 	 56.6812 	 19.4135 	 8.0788 	 3.0000
  0.6000 	 1.8000 	 9.6608 	 9.8425 	 1.3560 	 54.2858 	 1.9465 	 58.0393 	 8.5081 	 3.7535 	 3.0000
  0.6000 	 1.0000 	 8.8970 	 10.4274 	 2.2229 	 27.7336 	 2.4143 	 41.8328 	 64.4876 	 14.0992 	 3.1000
  0.6000 	 1.1000 	 9.0472 	 10.3402 	 2.0589 	 30.2759 	 2.3142 	 44.5655 	 57.8838 	 14.2896 	 3.1000
  0.6000 	 1.2000 	 9.1724 	 10.2693 	 1.9205 	 32.8562 	 2.2350 	 47.0237 	 51.5759 	 14.1675 	 3.1000
  0.6000 	 1.3000 	 9.2783 	 10.2103 	 1.8019 	 35.5124 	 2.1714 	 49.2393 	 45.4502 	 13.7270 	 3.1000
  0.6000 	 1.4000 	 9.3690 	 10.1606 	 1.6989 	 38.2937 	 2.1195 	 51.2410 	 39.3769 	 12.9473 	 3.1000
  0.6000 	 1.5000 	 9.4477 	 10.1181 	 1.6085 	 41.2742 	 2.0768 	 53.0543 	 33.1817 	 11.7801 	 3.1000
  0.6000 	 1.6000 	 9.5165 	 10.0814 	 1.5282 	 44.5844 	 2.0411 	 54.7013 	 26.5780 	 10.1169 	 3.1000
  0.6000 	 1.7000 	 9.5773 	 10.0493 	 1.4565 	 48.5263 	 2.0110 	 56.2018 	 18.9186 	 7.6755 	 3.1000
  0.6000 	 1.8000 	 9.6312 	 10.0210 	 1.3919 	 54.5756 	 1.9855 	 57.5726 	 6.9662 	 2.9970 	 3.1000
  0.6000 	 1.0000 	 8.8437 	 10.6267 	 2.2806 	 27.5299 	 2.4714 	 41.2914 	 64.7141 	 13.7615 	 3.2000
  0.6000 	 1.1000 	 8.9988 	 10.5345 	 2.1120 	 30.0790 	 2.3671 	 44.0296 	 58.0621 	 13.9505 	 3.2000
  0.6000 	 1.2000 	 9.1279 	 10.4594 	 1.9698 	 32.6666 	 2.2846 	 46.4961 	 51.6978 	 13.8295 	 3.2000
  0.6000 	 1.3000 	 9.2373 	 10.3972 	 1.8480 	 35.3307 	 2.2183 	 48.7220 	 45.5062 	 13.3912 	 3.2000
  0.6000 	 1.4000 	 9.3310 	 10.3447 	 1.7423 	 38.1216 	 2.1642 	 50.7351 	 39.3538 	 12.6135 	 3.2000
  0.6000 	 1.5000 	 9.4122 	 10.2999 	 1.6495 	 41.1153 	 2.1195 	 52.5604 	 33.0589 	 11.4451 	 3.2000
  0.6000 	 1.6000 	 9.4832 	 10.2611 	 1.5672 	 44.4483 	 2.0823 	 54.2199 	 26.3151 	 9.7715 	 3.2000
  0.6000 	 1.7000 	 9.5459 	 10.2273 	 1.4937 	 48.4462 	 2.0509 	 55.7327 	 18.4053 	 7.2865 	 3.2000
  0.6000 	 1.8000 	 9.6016 	 10.1975 	 1.4274 	 55.0339 	 2.0242 	 57.1158 	 4.9581 	 2.0819 	 3.2000
  0.6000 	 1.0000 	 8.7904 	 10.8247 	 2.3381 	 27.3239 	 2.5283 	 40.7645 	 64.9282 	 13.4406 	 3.3000
  0.6000 	 1.1000 	 8.9503 	 10.7273 	 2.1649 	 29.8793 	 2.4199 	 43.5075 	 58.2294 	 13.6282 	 3.3000
  0.6000 	 1.2000 	 9.0835 	 10.6481 	 2.0189 	 32.4735 	 2.3340 	 45.9816 	 51.8102 	 13.5082 	 3.3000
  0.6000 	 1.3000 	 9.1963 	 10.5824 	 1.8939 	 35.1449 	 2.2649 	 48.2170 	 45.5541 	 13.0721 	 3.3000
  0.6000 	 1.4000 	 9.2929 	 10.5271 	 1.7854 	 37.9448 	 2.2086 	 50.2408 	 39.3239 	 12.2961 	 3.3000
  0.6000 	 1.5000 	 9.3766 	 10.4799 	 1.6902 	 40.9512 	 2.1620 	 52.0776 	 32.9299 	 11.1264 	 3.3000
  0.6000 	 1.6000 	 9.4499 	 10.4391 	 1.6059 	 44.3068 	 2.1232 	 53.7488 	 26.0449 	 9.4420 	 3.3000
  0.6000 	 1.7000 	 9.5146 	 10.4034 	 1.5305 	 48.3632 	 2.0905 	 55.2736 	 17.8736 	 6.9104 	 3.3000
  0.6000 	 1.8000 	 9.5720 	 10.3721 	 1.4627 	 56.3499 	 2.0626 	 56.6684 	 0.7765 	 0.3185 	 3.3000
  0.6000 	 1.0000 	 8.7372 	 11.0215 	 2.3955 	 27.1163 	 2.5851 	 40.2514 	 65.1310 	 13.1351 	 3.4000
  0.6000 	 1.1000 	 8.9019 	 10.9188 	 2.2176 	 29.6773 	 2.4725 	 42.9986 	 58.3869 	 13.3213 	 3.4000
  0.6000 	 1.2000 	 9.0391 	 10.8353 	 2.0678 	 32.2774 	 2.3832 	 45.4796 	 51.9142 	 13.2022 	 3.4000
  0.6000 	 1.3000 	 9.1553 	 10.7661 	 1.9395 	 34.9555 	 2.3114 	 47.7238 	 45.5948 	 12.7683 	 3.4000
  0.6000 	 1.4000 	 9.2548 	 10.7079 	 1.8283 	 37.7638 	 2.2527 	 49.7577 	 39.2880 	 11.9939 	 3.4000
  0.6000 	 1.5000 	 9.3411 	 10.6582 	 1.7307 	 40.7825 	 2.2043 	 51.6053 	 32.7954 	 10.8228 	 3.4000
  0.6000 	 1.6000 	 9.4166 	 10.6153 	 1.6444 	 44.1606 	 2.1639 	 53.2878 	 25.7680 	 9.1272 	 3.4000
  0.6000 	 1.7000 	 9.4832 	 10.5778 	 1.5672 	 48.2781 	 2.1298 	 54.8239 	 17.3231 	 6.5458 	 3.4000
  0.6000 	 1.0000 	 8.6839 	 11.2173 	 2.4526 	 26.9075 	 2.6417 	 39.7515 	 65.3232 	 12.8440 	 3.5000
  0.6000 	 1.1000 	 8.8534 	 11.1090 	 2.2701 	 29.4734 	 2.5249 	 42.5021 	 58.5352 	 13.0287 	 3.5000
  0.6000 	 1.2000 	 8.9947 	 11.0211 	 2.1164 	 32.0789 	 2.4322 	 44.9894 	 52.0104 	 12.9106 	 3.5000
  0.6000 	 1.3000 	 9.1143 	 10.9484 	 1.9849 	 34.7631 	 2.3576 	 47.2418 	 45.6291 	 12.4786 	 3.5000
  0.6000 	 1.4000 	 9.2168 	 10.8872 	 1.8710 	 37.5792 	 2.2967 	 49.2852 	 39.2467 	 11.7059 	 3.5000
  0.6000 	 1.5000 	 9.3056 	 10.8349 	 1.7710 	 40.6097 	 2.2464 	 51.1430 	 32.6562 	 10.5333 	 3.5000
  0.6000 	 1.6000 	 9.3833 	 10.7898 	 1.6826 	 44.0102 	 2.2043 	 52.8362 	 25.4853 	 8.8260 	 3.5000
  0.6000 	 1.7000 	 9.4519 	 10.7505 	 1.6036 	 48.1918 	 2.1688 	 54.3832 	 16.7533 	 6.1914 	 3.5000
  0.6000 	 1.0000 	 8.6306 	 11.4121 	 2.5096 	 26.6979 	 2.6982 	 39.2641 	 65.5059 	 12.5663 	 3.6000
  0.6000 	 1.1000 	 8.8050 	 11.2982 	 2.3225 	 29.2681 	 2.5771 	 42.0176 	 58.6752 	 12.7495 	 3.6000
  0.6000 	 1.2000 	 8.9503 	 11.2058 	 2.1649 	 31.8784 	 2.4811 	 44.5105 	 52.0996 	 12.6322 	 3.6000
  0.6000 	 1.3000 	 9.0733 	 11.1293 	 2.0302 	 34.5683 	 2.4037 	 46.7705 	 45.6576 	 12.2022 	 3.6000
  0.6000 	 1.4000 	 9.1787 	 11.0650 	 1.9134 	 37.3917 	 2.3405 	 48.8228 	 39.2007 	 11.4311 	 3.6000
  0.6000 	 1.5000 	 9.2701 	 11.0102 	 1.8111 	 40.4335 	 2.2882 	 50.6903 	 32.5130 	 10.2568 	 3.6000
  0.6000 	 1.6000 	 9.3500 	 10.9629 	 1.7206 	 43.8561 	 2.2445 	 52.3937 	 25.1973 	 8.5376 	 3.6000
  0.6000 	 1.7000 	 9.4205 	 10.9217 	 1.6398 	 48.1051 	 2.2076 	 53.9511 	 16.1633 	 5.8460 	 3.6000
  0.6000 	 1.0000 	 8.5773 	 11.6061 	 2.5664 	 26.4878 	 2.7546 	 38.7886 	 65.6796 	 12.3008 	 3.7000
  0.6000 	 1.1000 	 8.7565 	 11.4863 	 2.3746 	 29.0619 	 2.6292 	 41.5444 	 58.8075 	 12.4826 	 3.7000
  0.6000 	 1.2000 	 8.9059 	 11.3892 	 2.2132 	 31.6764 	 2.5298 	 44.0425 	 52.1823 	 12.3661 	 3.7000
  0.6000 	 1.3000 	 9.0323 	 11.3090 	 2.0753 	 34.3713 	 2.4496 	 46.3094 	 45.6809 	 11.9381 	 3.7000
  0.6000 	 1.4000 	 9.1406 	 11.2416 	 1.9558 	 37.2016 	 2.3840 	 48.3701 	 39.1506 	 11.1684 	 3.7000
  0.6000 	 1.5000 	 9.2345 	 11.1841 	 1.8511 	 40.2543 	 2.3298 	 50.2469 	 32.3663 	 9.9926 	 3.7000
  0.6000 	 1.6000 	 9.3167 	 11.1345 	 1.7585 	 43.6989 	 2.2844 	 51.9600 	 24.9045 	 8.2611 	 3.7000
  0.6000 	 1.7000 	 9.3892 	 11.0913 	 1.6759 	 48.0190 	 2.2462 	 53.5273 	 15.5518 	 5.5083 	 3.7000
  0.6000 	 1.0000 	 8.5240 	 11.7993 	 2.6230 	 26.2774 	 2.8108 	 38.3244 	 65.8450 	 12.0470 	 3.8000
  0.6000 	 1.1000 	 8.7081 	 11.6734 	 2.4266 	 28.8549 	 2.6812 	 41.0821 	 58.9327 	 12.2272 	 3.8000
  0.6000 	 1.2000 	 8.8615 	 11.5716 	 2.2614 	 31.4732 	 2.5783 	 43.5847 	 52.2592 	 12.1115 	 3.8000
  0.6000 	 1.3000 	 8.9913 	 11.4875 	 2.1202 	 34.1728 	 2.4953 	 45.8581 	 45.6995 	 11.6854 	 3.8000
  0.6000 	 1.4000 	 9.1026 	 11.4168 	 1.9979 	 37.0094 	 2.4274 	 47.9266 	 39.0969 	 10.9172 	 3.8000
  0.6000 	 1.5000 	 9.1990 	 11.3566 	 1.8908 	 40.0725 	 2.3712 	 49.8122 	 32.2166 	 9.7397 	 3.8000
  0.6000 	 1.6000 	 9.2834 	 11.3047 	 1.7961 	 43.5389 	 2.3242 	 51.5346 	 24.6075 	 7.9957 	 3.8000
  0.6000 	 1.7000 	 9.3578 	 11.2595 	 1.7117 	 47.9345 	 2.2845 	 53.1115 	 14.9170 	 5.1770 	 3.8000
  0.6000 	 1.0000 	 8.4707 	 11.9917 	 2.6796 	 26.0671 	 2.8669 	 37.8710 	 66.0027 	 11.8038 	 3.9000
  0.6000 	 1.1000 	 8.6596 	 11.8597 	 2.4785 	 28.6475 	 2.7331 	 40.6301 	 59.0513 	 11.9826 	 3.9000
  0.6000 	 1.2000 	 8.8171 	 11.7530 	 2.3094 	 31.2691 	 2.6267 	 43.1367 	 52.3307 	 11.8677 	 3.9000
  0.6000 	 1.3000 	 8.9503 	 11.6649 	 2.1649 	 33.9729 	 2.5408 	 45.4162 	 45.7139 	 11.4434 	 3.9000
  0.6000 	 1.4000 	 9.0645 	 11.5909 	 2.0399 	 36.8154 	 2.4706 	 47.4921 	 39.0400 	 10.6767 	 3.9000
  0.6000 	 1.5000 	 9.1635 	 11.5279 	 1.9304 	 39.8885 	 2.4124 	 49.3860 	 32.0643 	 9.4975 	 3.9000
  0.6000 	 1.6000 	 9.2501 	 11.4737 	 1.8336 	 43.3766 	 2.3637 	 51.1172 	 24.3065 	 7.7407 	 3.9000
  0.6000 	 1.7000 	 9.3265 	 11.4264 	 1.7474 	 47.8525 	 2.3226 	 52.7033 	 14.2567 	 4.8508 	 3.9000
  0.6000 	 1.0000 	 8.4174 	 12.1836 	 2.7360 	 25.8570 	 2.9229 	 37.4278 	 66.1533 	 11.5708 	 4.0000
  0.6000 	 1.1000 	 8.6112 	 12.0452 	 2.5302 	 28.4398 	 2.7848 	 40.1880 	 59.1639 	 11.7481 	 4.0000
  0.6000 	 1.2000 	 8.7727 	 11.9334 	 2.3573 	 31.0644 	 2.6749 	 42.6983 	 52.3972 	 11.6339 	 4.0000
  0.6000 	 1.3000 	 8.9093 	 11.8413 	 2.2095 	 33.7719 	 2.5862 	 44.9833 	 45.7245 	 11.2114 	 4.0000
  0.6000 	 1.4000 	 9.0264 	 11.7639 	 2.0817 	 36.6200 	 2.5136 	 47.0661 	 38.9804 	 10.4461 	 4.0000
  0.6000 	 1.5000 	 9.1279 	 11.6981 	 1.9698 	 39.7026 	 2.4534 	 48.9678 	 31.9098 	 9.2652 	 4.0000
  0.6000 	 1.6000 	 9.2168 	 11.6414 	 1.8710 	 43.2122 	 2.4031 	 50.7076 	 24.0019 	 7.4954 	 4.0000
  0.6000 	 1.7000 	 9.2951 	 11.5920 	 1.7829 	 47.7742 	 2.3605 	 52.3024 	 13.5677 	 4.5282 	 4.0000
  0.6000 	 1.0000 	 8.3641 	 12.3749 	 2.7923 	 25.6474 	 2.9789 	 36.9946 	 66.2971 	 11.3472 	 4.1000
  0.6000 	 1.1000 	 8.5628 	 12.2300 	 2.5819 	 28.2323 	 2.8364 	 39.7553 	 59.2709 	 11.5230 	 4.1000
  0.6000 	 1.2000 	 8.7283 	 12.1131 	 2.4050 	 30.8593 	 2.7231 	 42.2688 	 52.4593 	 11.4095 	 4.1000
  0.6000 	 1.3000 	 8.8683 	 12.0167 	 2.2540 	 33.5702 	 2.6315 	 44.5590 	 45.7317 	 10.9888 	 4.1000
  0.6000 	 1.4000 	 8.9884 	 11.9359 	 2.1234 	 36.4233 	 2.5565 	 46.6483 	 38.9183 	 10.2250 	 4.1000
  0.6000 	 1.5000 	 9.0924 	 11.8671 	 2.0091 	 39.5151 	 2.4943 	 48.5575 	 31.7535 	 9.0424 	 4.1000
  0.6000 	 1.6000 	 9.1835 	 11.8080 	 1.9081 	 43.0461 	 2.4423 	 50.3053 	 23.6939 	 7.2592 	 4.1000
  0.6000 	 1.7000 	 9.2638 	 11.7565 	 1.8182 	 47.7010 	 2.3983 	 51.9086 	 12.8463 	 4.2076 	 4.1000
  0.6000 	 1.0000 	 8.3108 	 12.5658 	 2.8484 	 25.4383 	 3.0347 	 36.5707 	 66.4348 	 11.1324 	 4.2000
  0.6000 	 1.1000 	 8.5143 	 12.4141 	 2.6333 	 28.0249 	 2.8879 	 39.3317 	 59.3726 	 11.3068 	 4.2000
  0.6000 	 1.2000 	 8.6839 	 12.2919 	 2.4526 	 30.6541 	 2.7710 	 41.8480 	 52.5172 	 11.1939 	 4.2000
  0.6000 	 1.3000 	 8.8273 	 12.1912 	 2.2983 	 33.3680 	 2.6766 	 44.1429 	 45.7357 	 10.7750 	 4.2000
  0.6000 	 1.4000 	 8.9503 	 12.1068 	 2.1649 	 36.2258 	 2.5992 	 46.2384 	 38.8541 	 10.0126 	 4.2000
  0.6000 	 1.5000 	 9.0569 	 12.0351 	 2.0482 	 39.3263 	 2.5350 	 48.1546 	 31.5957 	 8.8284 	 4.2000
  0.6000 	 1.6000 	 9.1502 	 11.9734 	 1.9452 	 42.8785 	 2.4813 	 49.9101 	 23.3829 	 7.0316 	 4.2000
  0.6000 	 1.7000 	 9.2324 	 11.9197 	 1.8534 	 47.6346 	 2.4358 	 51.5215 	 12.0870 	 3.8869 	 4.2000
  0.6000 	 1.0000 	 8.2576 	 12.7562 	 2.9045 	 25.2298 	 3.0904 	 36.1558 	 66.5666 	 10.9260 	 4.3000
  0.6000 	 1.1000 	 8.4659 	 12.5977 	 2.6847 	 27.8179 	 2.9393 	 38.9168 	 59.4695 	 11.0989 	 4.3000
  0.6000 	 1.2000 	 8.6395 	 12.4700 	 2.5001 	 30.4489 	 2.8189 	 41.4356 	 52.5712 	 10.9866 	 4.3000
  0.6000 	 1.3000 	 8.7863 	 12.3649 	 2.3425 	 33.1654 	 2.7216 	 43.7348 	 45.7369 	 10.5694 	 4.3000
  0.6000 	 1.4000 	 8.9123 	 12.2769 	 2.2063 	 36.0275 	 2.6418 	 45.8360 	 38.7880 	 9.8086 	 4.3000
  0.6000 	 1.5000 	 9.0214 	 12.2021 	 2.0872 	 39.1363 	 2.5756 	 47.7590 	 31.4366 	 8.6226 	 4.3000
  0.6000 	 1.6000 	 9.1168 	 12.1378 	 1.9821 	 42.7097 	 2.5201 	 49.5218 	 23.0691 	 6.8121 	 4.3000
  0.6000 	 1.7000 	 9.2011 	 12.0819 	 1.8885 	 47.5770 	 2.4732 	 51.1409 	 11.2830 	 3.5640 	 4.3000
  0.6000 	 1.0000 	 8.2043 	 12.9464 	 2.9604 	 25.0222 	 3.1461 	 35.7496 	 66.6930 	 10.7273 	 4.4000
  0.6000 	 1.1000 	 8.4174 	 12.7807 	 2.7360 	 27.6113 	 2.9906 	 38.5102 	 59.5618 	 10.8988 	 4.4000
  0.6000 	 1.2000 	 8.5951 	 12.6474 	 2.5475 	 30.2439 	 2.8667 	 41.0311 	 52.6217 	 10.7872 	 4.4000
  0.6000 	 1.3000 	 8.7454 	 12.5378 	 2.3866 	 32.9626 	 2.7664 	 43.3344 	 45.7356 	 10.3717 	 4.4000
  0.6000 	 1.4000 	 8.8742 	 12.4461 	 2.2476 	 35.8286 	 2.6842 	 45.4409 	 38.7203 	 9.6123 	 4.4000
  0.6000 	 1.5000 	 8.9858 	 12.3682 	 2.1261 	 38.9455 	 2.6160 	 47.3702 	 31.2764 	 8.4247 	 4.4000
  0.6000 	 1.6000 	 9.0835 	 12.3013 	 2.0189 	 42.5400 	 2.5588 	 49.1401 	 22.7525 	 6.6001 	 4.4000
  0.6000 	 1.7000 	 9.1697 	 12.2431 	 1.9234 	 47.5311 	 2.5104 	 50.7667 	 10.4242 	 3.2356 	 4.4000
  0.6000 	 1.0000 	 8.1510 	 13.1362 	 3.0163 	 24.8155 	 3.2016 	 35.3516 	 66.8142 	 10.5361 	 4.5000
  0.6000 	 1.1000 	 8.3690 	 12.9632 	 2.7871 	 27.4054 	 3.0418 	 38.1116 	 59.6500 	 10.7062 	 4.5000
  0.6000 	 1.2000 	 8.5506 	 12.8242 	 2.5947 	 30.0392 	 2.9143 	 40.6343 	 52.6689 	 10.5951 	 4.5000
  0.6000 	 1.3000 	 8.7044 	 12.7100 	 2.4306 	 32.7599 	 2.8112 	 42.9412 	 45.7320 	 10.1814 	 4.5000
  0.6000 	 1.4000 	 8.8361 	 12.6145 	 2.2888 	 35.6295 	 2.7265 	 45.0528 	 38.6513 	 9.4234 	 4.5000
  0.6000 	 1.5000 	 8.9503 	 12.5334 	 2.1649 	 38.7540 	 2.6563 	 46.9882 	 31.1155 	 8.2342 	 4.5000
  0.6000 	 1.6000 	 9.0502 	 12.4638 	 2.0556 	 42.3695 	 2.5974 	 48.7648 	 22.4333 	 6.3953 	 4.5000
  0.6000 	 1.7000 	 9.1384 	 12.4033 	 1.9582 	 47.5010 	 2.5475 	 50.3985 	 9.4963 	 2.8976 	 4.5000
  0.7000 	 1.0000 	 9.4299 	 8.3321 	 1.5630 	 26.2352 	 1.8309 	 48.2741 	 56.9157 	 22.0389 	 2.1000
  0.7000 	 1.1000 	 9.5317 	 8.2875 	 1.4431 	 28.5750 	 1.7706 	 50.8912 	 51.5186 	 22.3162 	 2.1000
  0.7000 	 1.2000 	 9.6164 	 8.2508 	 1.3408 	 30.9692 	 1.7233 	 53.2075 	 46.4632 	 22.2383 	 2.1000
  0.7000 	 1.3000 	 9.6882 	 8.2201 	 1.2523 	 33.4517 	 1.6855 	 55.2659 	 41.6651 	 21.8142 	 2.1000
  0.7000 	 1.4000 	 9.7497 	 8.1941 	 1.1745 	 36.0631 	 1.6550 	 57.1026 	 37.0414 	 21.0396 	 2.1000
  0.7000 	 1.5000 	 9.8029 	 8.1718 	 1.1055 	 38.8566 	 1.6299 	 58.7485 	 32.5037 	 19.8919 	 2.1000
  0.7000 	 1.6000 	 9.8496 	 8.1524 	 1.0436 	 41.9097 	 1.6091 	 60.2295 	 27.9441 	 18.3198 	 2.1000
  0.7000 	 1.7000 	 9.8907 	 8.1354 	 0.9876 	 45.3488 	 1.5916 	 61.5676 	 23.2071 	 16.2188 	 2.1000
  0.7000 	 1.8000 	 9.9273 	 8.1204 	 0.9365 	 49.4216 	 1.5769 	 62.7812 	 18.0067 	 13.3596 	 2.1000
  0.7000 	 1.9000 	 9.9600 	 8.1070 	 0.8896 	 54.8153 	 1.5643 	 63.8859 	 11.5573 	 9.0707 	 2.1000
  0.7000 	 1.0000 	 9.3766 	 8.5528 	 1.6249 	 26.2344 	 1.8906 	 47.5264 	 57.4472 	 21.2920 	 2.2000
  0.7000 	 1.1000 	 9.4832 	 8.5045 	 1.5005 	 28.5938 	 1.8264 	 50.1617 	 51.9998 	 21.5679 	 2.2000
  0.7000 	 1.2000 	 9.5720 	 8.4649 	 1.3947 	 31.0043 	 1.7761 	 52.4985 	 46.8892 	 21.4942 	 2.2000
  0.7000 	 1.3000 	 9.6472 	 8.4318 	 1.3031 	 33.4995 	 1.7359 	 54.5784 	 42.0315 	 21.0789 	 2.2000
  0.7000 	 1.4000 	 9.7116 	 8.4037 	 1.2229 	 36.1193 	 1.7033 	 56.4369 	 37.3434 	 20.3176 	 2.2000
  0.7000 	 1.5000 	 9.7674 	 8.3796 	 1.1517 	 38.9166 	 1.6766 	 58.1043 	 32.7349 	 19.1876 	 2.2000
  0.7000 	 1.6000 	 9.8163 	 8.3587 	 1.0880 	 41.9685 	 1.6544 	 59.6062 	 28.0950 	 17.6377 	 2.2000
  0.7000 	 1.7000 	 9.8594 	 8.3404 	 1.0304 	 45.4019 	 1.6357 	 60.9644 	 23.2609 	 15.5624 	 2.2000
  0.7000 	 1.8000 	 9.8977 	 8.3242 	 0.9780 	 49.4694 	 1.6199 	 62.1971 	 17.9269 	 12.7278 	 2.2000
  0.7000 	 1.9000 	 9.9320 	 8.3098 	 0.9299 	 54.8980 	 1.6065 	 63.3201 	 11.2192 	 8.4221 	 2.2000
  0.7000 	 1.0000 	 9.3233 	 8.7704 	 1.6861 	 26.2070 	 1.9499 	 46.8060 	 57.9366 	 20.5989 	 2.3000
  0.7000 	 1.1000 	 9.4348 	 8.7184 	 1.5574 	 28.5844 	 1.8819 	 49.4576 	 52.4399 	 20.8733 	 2.3000
  0.7000 	 1.2000 	 9.5276 	 8.6757 	 1.4479 	 31.0101 	 1.8284 	 51.8132 	 47.2750 	 20.8030 	 2.3000
  0.7000 	 1.3000 	 9.6062 	 8.6401 	 1.3533 	 33.5175 	 1.7857 	 53.9130 	 42.3580 	 20.3955 	 2.3000
  0.7000 	 1.4000 	 9.6735 	 8.6099 	 1.2705 	 36.1462 	 1.7511 	 55.7919 	 37.6053 	 19.6457 	 2.3000
  0.7000 	 1.5000 	 9.7319 	 8.5840 	 1.1972 	 38.9490 	 1.7227 	 57.4795 	 32.9250 	 18.5305 	 2.3000
  0.7000 	 1.6000 	 9.7830 	 8.5615 	 1.1316 	 42.0030 	 1.6991 	 59.0012 	 28.2025 	 16.9982 	 2.3000
  0.7000 	 1.7000 	 9.8280 	 8.5418 	 1.0724 	 45.4368 	 1.6792 	 60.3784 	 23.2665 	 14.9416 	 2.3000
  0.7000 	 1.8000 	 9.8681 	 8.5244 	 1.0186 	 49.5104 	 1.6624 	 61.6295 	 17.7880 	 12.1191 	 2.3000
  0.7000 	 1.9000 	 9.9039 	 8.5090 	 0.9693 	 55.0077 	 1.6481 	 62.7699 	 10.7791 	 7.7622 	 2.3000
  0.7000 	 1.0000 	 9.2701 	 8.9852 	 1.7469 	 26.1573 	 2.0089 	 46.1110 	 58.3888 	 19.9537 	 2.4000
  0.7000 	 1.1000 	 9.3863 	 8.9292 	 1.6137 	 28.5510 	 1.9370 	 48.7773 	 52.8441 	 20.2263 	 2.4000
  0.7000 	 1.2000 	 9.4832 	 8.8834 	 1.5005 	 30.9909 	 1.8804 	 51.1500 	 47.6257 	 20.1591 	 2.4000
  0.7000 	 1.3000 	 9.5652 	 8.8452 	 1.4029 	 33.5099 	 1.8352 	 53.2684 	 42.6500 	 19.7584 	 2.4000
  0.7000 	 1.4000 	 9.6355 	 8.8128 	 1.3175 	 36.1478 	 1.7985 	 55.1663 	 37.8327 	 19.0185 	 2.4000
  0.7000 	 1.5000 	 9.6964 	 8.7850 	 1.2420 	 38.9572 	 1.7683 	 56.8729 	 33.0800 	 17.9157 	 2.4000
  0.7000 	 1.6000 	 9.7497 	 8.7609 	 1.1745 	 42.0159 	 1.7433 	 58.4133 	 28.2730 	 16.3975 	 2.4000
  0.7000 	 1.7000 	 9.7967 	 8.7399 	 1.1137 	 45.4548 	 1.7222 	 59.8087 	 23.2308 	 14.3540 	 2.4000
  0.7000 	 1.8000 	 9.8385 	 8.7212 	 1.0585 	 49.5442 	 1.7044 	 61.0772 	 17.5973 	 11.5331 	 2.4000
  0.7000 	 1.9000 	 9.8759 	 8.7047 	 1.0080 	 55.1433 	 1.6891 	 62.2343 	 10.2392 	 7.0911 	 2.4000
  0.7000 	 1.0000 	 9.2168 	 9.1974 	 1.8071 	 26.0885 	 2.0676 	 45.4397 	 58.8080 	 19.3512 	 2.5000
  0.7000 	 1.1000 	 9.3379 	 9.1374 	 1.6695 	 28.4972 	 1.9917 	 48.1191 	 53.2165 	 19.6220 	 2.5000
  0.7000 	 1.2000 	 9.4388 	 9.0883 	 1.5527 	 30.9502 	 1.9320 	 50.5076 	 47.9457 	 19.5573 	 2.5000
  0.7000 	 1.3000 	 9.5242 	 9.0474 	 1.4520 	 33.4804 	 1.8842 	 52.6431 	 42.9120 	 19.1627 	 2.5000
  0.7000 	 1.4000 	 9.5974 	 9.0128 	 1.3640 	 36.1274 	 1.8454 	 54.5588 	 38.0303 	 18.4314 	 2.5000
  0.7000 	 1.5000 	 9.6608 	 8.9831 	 1.2863 	 38.9442 	 1.8135 	 56.2835 	 33.2048 	 17.3393 	 2.5000
  0.7000 	 1.6000 	 9.7164 	 8.9573 	 1.2169 	 42.0094 	 1.7870 	 57.8416 	 28.3118 	 15.8321 	 2.5000
  0.7000 	 1.7000 	 9.7653 	 8.9348 	 1.1544 	 45.4572 	 1.7647 	 59.2542 	 23.1597 	 13.7970 	 2.5000
  0.7000 	 1.8000 	 9.8089 	 8.9149 	 1.0977 	 49.5704 	 1.7458 	 60.5394 	 17.3610 	 10.9689 	 2.5000
  0.7000 	 1.9000 	 9.8478 	 8.8972 	 1.0460 	 55.3069 	 1.7296 	 61.7124 	 9.5962 	 6.4055 	 2.5000
  0.7000 	 1.0000 	 9.1635 	 9.4072 	 1.8670 	 26.0036 	 2.1260 	 44.7906 	 59.1978 	 18.7870 	 2.6000
  0.7000 	 1.1000 	 9.2894 	 9.3431 	 1.7248 	 28.4259 	 2.0461 	 47.4818 	 53.5608 	 19.0558 	 2.6000
  0.7000 	 1.2000 	 9.3944 	 9.2906 	 1.6043 	 30.8911 	 1.9832 	 49.8846 	 48.2386 	 18.9935 	 2.6000
  0.7000 	 1.3000 	 9.4832 	 9.2469 	 1.5005 	 33.4318 	 1.9328 	 52.0360 	 43.1477 	 18.6042 	 2.6000
  0.7000 	 1.4000 	 9.5593 	 9.2100 	 1.4100 	 36.0878 	 1.8919 	 53.9685 	 38.2020 	 17.8806 	 2.6000
  0.7000 	 1.5000 	 9.6253 	 9.1783 	 1.3300 	 38.9126 	 1.8583 	 55.7100 	 33.3034 	 16.7975 	 2.6000
  0.7000 	 1.6000 	 9.6830 	 9.1508 	 1.2587 	 41.9858 	 1.8303 	 57.2850 	 28.3232 	 15.2991 	 2.6000
  0.7000 	 1.7000 	 9.7340 	 9.1268 	 1.1945 	 45.4455 	 1.8067 	 58.7140 	 23.0579 	 13.2685 	 2.6000
  0.7000 	 1.8000 	 9.7793 	 9.1056 	 1.1364 	 49.5897 	 1.7868 	 60.0151 	 17.0837 	 10.4254 	 2.6000
  0.7000 	 1.9000 	 9.8198 	 9.0867 	 1.0833 	 55.5047 	 1.7697 	 61.2034 	 8.8399 	 5.6986 	 2.6000
  0.7000 	 1.0000 	 9.1102 	 9.6149 	 1.9264 	 25.9049 	 2.1841 	 44.1623 	 59.5613 	 18.2573 	 2.7000
  0.7000 	 1.1000 	 9.2410 	 9.5465 	 1.7798 	 28.3397 	 2.1002 	 46.8639 	 53.8801 	 18.5242 	 2.7000
  0.7000 	 1.2000 	 9.3500 	 9.4905 	 1.6556 	 30.8160 	 2.0341 	 49.2798 	 48.5076 	 18.4638 	 2.7000
  0.7000 	 1.3000 	 9.4422 	 9.4439 	 1.5487 	 33.3667 	 1.9812 	 51.4461 	 43.3603 	 18.0794 	 2.7000
  0.7000 	 1.4000 	 9.5213 	 9.4046 	 1.4555 	 36.0316 	 1.9381 	 53.3942 	 38.3511 	 17.3626 	 2.7000
  0.7000 	 1.5000 	 9.5898 	 9.3708 	 1.3732 	 38.8645 	 1.9027 	 55.1518 	 33.3793 	 16.2872 	 2.7000
  0.7000 	 1.6000 	 9.6497 	 9.3416 	 1.3000 	 41.9469 	 1.8731 	 56.7426 	 28.3109 	 14.7957 	 2.7000
  0.7000 	 1.7000 	 9.7026 	 9.3161 	 1.2341 	 45.4210 	 1.8483 	 58.1873 	 22.9293 	 12.7663 	 2.7000
  0.7000 	 1.8000 	 9.7497 	 9.2935 	 1.1745 	 49.6024 	 1.8273 	 59.5036 	 16.7691 	 9.9012 	 2.7000
  0.7000 	 1.9000 	 9.7917 	 9.2735 	 1.1202 	 55.7484 	 1.8093 	 60.7065 	 7.9499 	 4.9581 	 2.7000
  0.7000 	 1.0000 	 9.0569 	 9.8206 	 1.9855 	 25.7945 	 2.2420 	 43.5534 	 59.9012 	 17.7590 	 2.8000
  0.7000 	 1.1000 	 9.1925 	 9.7477 	 1.8344 	 28.2405 	 2.1541 	 46.2643 	 54.1769 	 18.0238 	 2.8000
  0.7000 	 1.2000 	 9.3056 	 9.6882 	 1.7064 	 30.7272 	 2.0847 	 48.6923 	 48.7552 	 17.9652 	 2.8000
  0.7000 	 1.3000 	 9.4012 	 9.6386 	 1.5964 	 33.2872 	 2.0291 	 50.8723 	 43.5524 	 17.5851 	 2.8000
  0.7000 	 1.4000 	 9.4832 	 9.5968 	 1.5005 	 35.9606 	 1.9839 	 52.8351 	 38.4803 	 16.8745 	 2.8000
  0.7000 	 1.5000 	 9.5543 	 9.5610 	 1.4160 	 38.8020 	 1.9467 	 54.6078 	 33.4355 	 15.8057 	 2.8000
  0.7000 	 1.6000 	 9.6164 	 9.5299 	 1.3408 	 41.8944 	 1.9156 	 56.2138 	 28.2780 	 14.3194 	 2.8000
  0.7000 	 1.7000 	 9.6713 	 9.5028 	 1.2733 	 45.3849 	 1.8895 	 57.6734 	 22.7771 	 12.2885 	 2.8000
  0.7000 	 1.8000 	 9.7201 	 9.4789 	 1.2122 	 49.6094 	 1.8674 	 59.0042 	 16.4201 	 9.3948 	 2.8000
  0.7000 	 1.9000 	 9.7637 	 9.4576 	 1.1565 	 56.0598 	 1.8484 	 60.2212 	 6.8860 	 4.1614 	 2.8000
  0.7000 	 1.0000 	 9.0036 	 10.0245 	 2.0443 	 25.6739 	 2.2996 	 42.9630 	 60.2197 	 17.2891 	 2.9000
  0.7000 	 1.1000 	 9.1441 	 9.9470 	 1.8886 	 28.1302 	 2.2077 	 45.6820 	 54.4536 	 17.5518 	 2.9000
  0.7000 	 1.2000 	 9.2612 	 9.8837 	 1.7569 	 30.6264 	 2.1351 	 48.1210 	 48.9838 	 17.4947 	 2.9000
  0.7000 	 1.3000 	 9.3602 	 9.8312 	 1.6438 	 33.1951 	 2.0768 	 50.3138 	 43.7264 	 17.1187 	 2.9000
  0.7000 	 1.4000 	 9.4451 	 9.7868 	 1.5453 	 35.8769 	 2.0294 	 52.2904 	 38.5920 	 16.4135 	 2.9000
  0.7000 	 1.5000 	 9.5187 	 9.7488 	 1.4585 	 38.7267 	 1.9903 	 54.0773 	 33.4743 	 15.3506 	 2.9000
  0.7000 	 1.6000 	 9.5831 	 9.7159 	 1.3813 	 41.8296 	 1.9578 	 55.6977 	 28.2272 	 13.8681 	 2.9000
  0.7000 	 1.7000 	 9.6399 	 9.6872 	 1.3120 	 45.3383 	 1.9304 	 57.1716 	 22.6040 	 11.8333 	 2.9000
  0.7000 	 1.8000 	 9.6904 	 9.6618 	 1.2494 	 49.6115 	 1.9071 	 58.5163 	 16.0388 	 8.9048 	 2.9000
  0.7000 	 1.9000 	 9.7356 	 9.6393 	 1.1924 	 56.4856 	 1.8872 	 59.7468 	 5.5611 	 3.2612 	 2.9000
  0.7000 	 1.0000 	 8.9503 	 10.2267 	 2.1028 	 25.5446 	 2.3571 	 42.3897 	 60.5189 	 16.8451 	 3.0000
  0.7000 	 1.1000 	 9.0957 	 10.1444 	 1.9426 	 28.0103 	 2.2610 	 45.1161 	 54.7121 	 17.1057 	 3.0000
  0.7000 	 1.2000 	 9.2168 	 10.0774 	 1.8071 	 30.5152 	 2.1851 	 47.5651 	 49.1953 	 17.0499 	 3.0000
  0.7000 	 1.3000 	 9.3192 	 10.0217 	 1.6908 	 33.0921 	 2.1242 	 49.7697 	 43.8842 	 16.6776 	 3.0000
  0.7000 	 1.4000 	 9.4071 	 9.9747 	 1.5896 	 35.7818 	 2.0746 	 51.7593 	 38.6882 	 15.9775 	 3.0000
  0.7000 	 1.5000 	 9.4832 	 9.9345 	 1.5005 	 38.6401 	 2.0337 	 53.5597 	 33.4980 	 14.9196 	 3.0000
  0.7000 	 1.6000 	 9.5498 	 9.8997 	 1.4214 	 41.7540 	 1.9996 	 55.1938 	 28.1605 	 13.4398 	 3.0000
  0.7000 	 1.7000 	 9.6086 	 9.8693 	 1.3504 	 45.2823 	 1.9709 	 56.6812 	 22.4125 	 11.3990 	 3.0000
  0.7000 	 1.8000 	 9.6608 	 9.8425 	 1.2863 	 49.6097 	 1.9465 	 58.0393 	 15.6267 	 8.4296 	 3.0000
  0.7000 	 1.9000 	 9.7076 	 9.8187 	 1.2279 	 57.1626 	 1.9256 	 59.2827 	 3.7208 	 2.1201 	 3.0000
  0.7000 	 1.0000 	 8.8970 	 10.4274 	 2.1610 	 25.4079 	 2.4143 	 41.8328 	 60.8004 	 16.4249 	 3.1000
  0.7000 	 1.1000 	 9.0472 	 10.3402 	 1.9962 	 27.8821 	 2.3142 	 44.5655 	 54.9542 	 16.6834 	 3.1000
  0.7000 	 1.2000 	 9.1724 	 10.2693 	 1.8570 	 30.3950 	 2.2350 	 47.0237 	 49.3914 	 16.6287 	 3.1000
  0.7000 	 1.3000 	 9.2783 	 10.2103 	 1.7376 	 32.9796 	 2.1714 	 49.2393 	 44.0276 	 16.2598 	 3.1000
  0.7000 	 1.4000 	 9.3690 	 10.1606 	 1.6337 	 35.6768 	 2.1195 	 51.2410 	 38.7707 	 15.5643 	 3.1000
  0.7000 	 1.5000 	 9.4477 	 10.1181 	 1.5423 	 38.5434 	 2.0768 	 53.0543 	 33.5082 	 14.5108 	 3.1000
  0.7000 	 1.6000 	 9.5165 	 10.0814 	 1.4611 	 41.6686 	 2.0411 	 54.7013 	 28.0800 	 13.0327 	 3.1000
  0.7000 	 1.7000 	 9.5773 	 10.0493 	 1.3884 	 45.2177 	 2.0110 	 56.2018 	 22.2044 	 10.9841 	 3.1000
  0.7000 	 1.8000 	 9.6312 	 10.0210 	 1.3227 	 49.6048 	 1.9855 	 57.5726 	 15.1847 	 7.9678 	 3.1000
  0.7000 	 1.0000 	 8.8437 	 10.6267 	 2.2190 	 25.2649 	 2.4714 	 41.2914 	 61.0660 	 16.0264 	 3.2000
  0.7000 	 1.1000 	 8.9988 	 10.5345 	 2.0496 	 27.7468 	 2.3671 	 44.0296 	 55.1813 	 16.2828 	 3.2000
  0.7000 	 1.2000 	 9.1279 	 10.4594 	 1.9066 	 30.2670 	 2.2846 	 46.4961 	 49.5736 	 16.2291 	 3.2000
  0.7000 	 1.3000 	 9.2373 	 10.3972 	 1.7840 	 32.8586 	 2.2183 	 48.7220 	 44.1580 	 15.8634 	 3.2000
  0.7000 	 1.4000 	 9.3310 	 10.3447 	 1.6774 	 35.5630 	 2.1642 	 50.7351 	 38.8410 	 15.1721 	 3.2000
  0.7000 	 1.5000 	 9.4122 	 10.2999 	 1.5837 	 38.4378 	 2.1195 	 52.5604 	 33.5067 	 14.1226 	 3.2000
  0.7000 	 1.6000 	 9.4832 	 10.2611 	 1.5005 	 41.5745 	 2.0823 	 54.2199 	 27.9873 	 12.6454 	 3.2000
  0.7000 	 1.7000 	 9.5459 	 10.2273 	 1.4261 	 45.1455 	 2.0509 	 55.7327 	 21.9815 	 10.5872 	 3.2000
  0.7000 	 1.8000 	 9.6016 	 10.1975 	 1.3589 	 49.5980 	 2.0242 	 57.1158 	 14.7131 	 7.5178 	 3.2000
  0.7000 	 1.0000 	 8.7904 	 10.8247 	 2.2767 	 25.1164 	 2.5283 	 40.7645 	 61.3168 	 15.6480 	 3.3000
  0.7000 	 1.1000 	 8.9503 	 10.7273 	 2.1028 	 27.6053 	 2.4199 	 43.5075 	 55.3949 	 15.9022 	 3.3000
  0.7000 	 1.2000 	 9.0835 	 10.6481 	 1.9560 	 30.1322 	 2.3340 	 45.9816 	 49.7433 	 15.8495 	 3.3000
  0.7000 	 1.3000 	 9.1963 	 10.5824 	 1.8302 	 32.7303 	 2.2649 	 48.2170 	 44.2769 	 15.4867 	 3.3000
  0.7000 	 1.4000 	 9.2929 	 10.5271 	 1.7209 	 35.4414 	 2.2086 	 50.2408 	 38.9004 	 14.7994 	 3.3000
  0.7000 	 1.5000 	 9.3766 	 10.4799 	 1.6249 	 38.3243 	 2.1620 	 52.0776 	 33.4946 	 13.7533 	 3.3000
  0.7000 	 1.6000 	 9.4499 	 10.4391 	 1.5397 	 41.4726 	 2.1232 	 53.7488 	 27.8838 	 12.2762 	 3.3000
  0.7000 	 1.7000 	 9.5146 	 10.4034 	 1.4634 	 45.0664 	 2.0905 	 55.2736 	 21.7451 	 10.2072 	 3.3000
  0.7000 	 1.8000 	 9.5720 	 10.3721 	 1.3947 	 49.5903 	 2.0626 	 56.6684 	 14.2119 	 7.0780 	 3.3000
  0.7000 	 1.0000 	 8.7372 	 11.0215 	 2.3343 	 24.9633 	 2.5851 	 40.2514 	 61.5542 	 15.2881 	 3.4000
  0.7000 	 1.1000 	 8.9019 	 10.9188 	 2.1557 	 27.4585 	 2.4725 	 42.9986 	 55.5960 	 15.5401 	 3.4000
  0.7000 	 1.2000 	 9.0391 	 10.8353 	 2.0052 	 29.9914 	 2.3832 	 45.4796 	 49.9015 	 15.4882 	 3.4000
  0.7000 	 1.3000 	 9.1553 	 10.7661 	 1.8761 	 32.5955 	 2.3114 	 47.7238 	 44.3852 	 15.1282 	 3.4000
  0.7000 	 1.4000 	 9.2548 	 10.7079 	 1.7641 	 35.3131 	 2.2527 	 49.7577 	 38.9502 	 14.4446 	 3.4000
  0.7000 	 1.5000 	 9.3411 	 10.6582 	 1.6658 	 38.2037 	 2.2043 	 51.6053 	 33.4733 	 13.4016 	 3.4000
  0.7000 	 1.6000 	 9.4166 	 10.6153 	 1.5786 	 41.3637 	 2.1639 	 53.2878 	 27.7707 	 11.9241 	 3.4000
  0.7000 	 1.7000 	 9.4832 	 10.5778 	 1.5005 	 44.9811 	 2.1298 	 54.8239 	 21.4964 	 9.8427 	 3.4000
  0.7000 	 1.8000 	 9.5424 	 10.5448 	 1.4302 	 49.5831 	 2.1008 	 56.2300 	 13.6800 	 6.6469 	 3.4000
  0.7000 	 1.0000 	 8.6839 	 11.2173 	 2.3916 	 24.8062 	 2.6417 	 39.7515 	 61.7792 	 14.9453 	 3.5000
  0.7000 	 1.1000 	 8.8534 	 11.1090 	 2.2085 	 27.3070 	 2.5249 	 42.5021 	 55.7857 	 15.1951 	 3.5000
  0.7000 	 1.2000 	 8.9947 	 11.0211 	 2.0541 	 29.8455 	 2.4322 	 44.9894 	 50.0494 	 15.1440 	 3.5000
  0.7000 	 1.3000 	 9.1143 	 10.9484 	 1.9219 	 32.4552 	 2.3576 	 47.2418 	 44.4841 	 14.7866 	 3.5000
  0.7000 	 1.4000 	 9.2168 	 10.8872 	 1.8071 	 35.1787 	 2.2967 	 49.2852 	 38.9912 	 14.1064 	 3.5000
  0.7000 	 1.5000 	 9.3056 	 10.8349 	 1.7064 	 38.0769 	 2.2464 	 51.1430 	 33.4438 	 13.0662 	 3.5000
  0.7000 	 1.6000 	 9.3833 	 10.7898 	 1.6172 	 41.2485 	 2.2043 	 52.8362 	 27.6492 	 11.5877 	 3.5000
  0.7000 	 1.7000 	 9.4519 	 10.7505 	 1.5374 	 44.8903 	 2.1688 	 54.3832 	 21.2365 	 9.4928 	 3.5000
  0.7000 	 1.8000 	 9.5128 	 10.7159 	 1.4655 	 49.5775 	 2.1386 	 55.8001 	 13.1163 	 6.2226 	 3.5000
  0.7000 	 1.0000 	 8.6306 	 11.4121 	 2.4488 	 24.6457 	 2.6982 	 39.2641 	 61.9928 	 14.6184 	 3.6000
  0.7000 	 1.1000 	 8.8050 	 11.2982 	 2.2610 	 27.1516 	 2.5771 	 42.0176 	 55.9650 	 14.8660 	 3.6000
  0.7000 	 1.2000 	 8.9503 	 11.2058 	 2.1028 	 29.6950 	 2.4811 	 44.5105 	 50.1878 	 14.8155 	 3.6000
  0.7000 	 1.3000 	 9.0733 	 11.1293 	 1.9674 	 32.3098 	 2.4037 	 46.7705 	 44.5743 	 14.4607 	 3.6000
  0.7000 	 1.4000 	 9.1787 	 11.0650 	 1.8499 	 35.0390 	 2.3405 	 48.8228 	 39.0244 	 13.7837 	 3.6000
  0.7000 	 1.5000 	 9.2701 	 11.0102 	 1.7469 	 37.9444 	 2.2882 	 50.6903 	 33.4070 	 12.7459 	 3.6000
  0.7000 	 1.6000 	 9.3500 	 10.9629 	 1.6556 	 41.1277 	 2.2445 	 52.3937 	 27.5201 	 11.2661 	 3.6000
  0.7000 	 1.7000 	 9.4205 	 10.9217 	 1.5740 	 44.7946 	 2.2076 	 53.9511 	 20.9664 	 9.1565 	 3.6000
  0.7000 	 1.8000 	 9.4832 	 10.8854 	 1.5005 	 49.5752 	 2.1762 	 55.3785 	 12.5183 	 5.8033 	 3.6000
  0.7000 	 1.0000 	 8.5773 	 11.6061 	 2.5058 	 24.4824 	 2.7546 	 38.7886 	 62.1959 	 14.3062 	 3.7000
  0.7000 	 1.1000 	 8.7565 	 11.4863 	 2.3134 	 26.9928 	 2.6292 	 41.5444 	 56.1346 	 14.5517 	 3.7000
  0.7000 	 1.2000 	 8.9059 	 11.3892 	 2.1513 	 29.5407 	 2.5298 	 44.0425 	 50.3175 	 14.5017 	 3.7000
  0.7000 	 1.3000 	 9.0323 	 11.3090 	 2.0127 	 32.1602 	 2.4496 	 46.3094 	 44.6568 	 14.1493 	 3.7000
  0.7000 	 1.4000 	 9.1406 	 11.2416 	 1.8925 	 34.8947 	 2.3840 	 48.3701 	 39.0505 	 13.4754 	 3.7000
  0.7000 	 1.5000 	 9.2345 	 11.1841 	 1.7871 	 37.8070 	 2.3298 	 50.2469 	 33.3637 	 12.4399 	 3.7000
  0.7000 	 1.6000 	 9.3167 	 11.1345 	 1.6938 	 41.0018 	 2.2844 	 51.9600 	 27.3843 	 10.9582 	 3.7000
  0.7000 	 1.7000 	 9.3892 	 11.0913 	 1.6104 	 44.6944 	 2.2462 	 53.5273 	 20.6866 	 8.8329 	 3.7000
  0.7000 	 1.8000 	 9.4536 	 11.0533 	 1.5354 	 49.5780 	 2.2136 	 54.9648 	 11.8827 	 5.3868 	 3.7000
  0.7000 	 1.0000 	 8.5240 	 11.7993 	 2.5626 	 24.3167 	 2.8108 	 38.3244 	 62.3891 	 14.0077 	 3.8000
  0.7000 	 1.1000 	 8.7081 	 11.6734 	 2.3656 	 26.8311 	 2.6812 	 41.0821 	 56.2954 	 14.2510 	 3.8000
  0.7000 	 1.2000 	 8.8615 	 11.5716 	 2.1997 	 29.3830 	 2.5783 	 43.5847 	 50.4392 	 14.2016 	 3.8000
  0.7000 	 1.3000 	 8.9913 	 11.4875 	 2.0578 	 32.0067 	 2.4953 	 45.8581 	 44.7322 	 13.8514 	 3.8000
  0.7000 	 1.4000 	 9.1026 	 11.4168 	 1.9349 	 34.7461 	 2.4274 	 47.9266 	 39.0704 	 13.1805 	 3.8000
  0.7000 	 1.5000 	 9.1990 	 11.3566 	 1.8271 	 37.6652 	 2.3712 	 49.8122 	 33.3145 	 12.1470 	 3.8000
  0.7000 	 1.6000 	 9.2834 	 11.3047 	 1.7317 	 40.8714 	 2.3242 	 51.5346 	 27.2426 	 10.6632 	 3.8000
  0.7000 	 1.7000 	 9.3578 	 11.2595 	 1.6466 	 44.5904 	 2.2845 	 53.1115 	 20.3980 	 8.5211 	 3.8000
  0.7000 	 1.8000 	 9.4240 	 11.2198 	 1.5699 	 49.5880 	 2.2507 	 54.5586 	 11.2051 	 4.9706 	 3.8000
  0.7000 	 1.0000 	 8.4707 	 11.9917 	 2.6193 	 24.1489 	 2.8669 	 37.8710 	 62.5733 	 13.7221 	 3.9000
  0.7000 	 1.1000 	 8.6596 	 11.8597 	 2.4176 	 26.6669 	 2.7331 	 40.6301 	 56.4480 	 13.9632 	 3.9000
  0.7000 	 1.2000 	 8.8171 	 11.7530 	 2.2479 	 29.2225 	 2.6267 	 43.1367 	 50.5536 	 13.9143 	 3.9000
  0.7000 	 1.3000 	 8.9503 	 11.6649 	 2.1028 	 31.8500 	 2.5408 	 45.4162 	 44.8011 	 13.5662 	 3.9000
  0.7000 	 1.4000 	 9.0645 	 11.5909 	 1.9771 	 34.5940 	 2.4706 	 47.4921 	 39.0846 	 12.8982 	 3.9000
  0.7000 	 1.5000 	 9.1635 	 11.5279 	 1.8670 	 37.5194 	 2.4124 	 49.3860 	 33.2602 	 11.8665 	 3.9000
  0.7000 	 1.6000 	 9.2501 	 11.4737 	 1.7695 	 40.7369 	 2.3637 	 51.1172 	 27.0956 	 10.3803 	 3.9000
  0.7000 	 1.7000 	 9.3265 	 11.4264 	 1.6825 	 44.4829 	 2.3226 	 52.7033 	 20.1010 	 8.2204 	 3.9000
  0.7000 	 1.8000 	 9.3944 	 11.3849 	 1.6043 	 49.6081 	 2.2876 	 54.1596 	 10.4789 	 4.5515 	 3.9000
  0.7000 	 1.0000 	 8.4174 	 12.1836 	 2.6758 	 23.9795 	 2.9229 	 37.4278 	 62.7491 	 13.4484 	 4.0000
  0.7000 	 1.1000 	 8.6112 	 12.0452 	 2.4695 	 26.5006 	 2.7848 	 40.1880 	 56.5930 	 13.6874 	 4.0000
  0.7000 	 1.2000 	 8.7727 	 11.9334 	 2.2959 	 29.0594 	 2.6749 	 42.6983 	 50.6613 	 13.6389 	 4.0000
  0.7000 	 1.3000 	 8.9093 	 11.8413 	 2.1476 	 31.6904 	 2.5862 	 44.9833 	 44.8641 	 13.2929 	 4.0000
  0.7000 	 1.4000 	 9.0264 	 11.7639 	 2.0192 	 34.4386 	 2.5136 	 47.0661 	 39.0936 	 12.6275 	 4.0000
  0.7000 	 1.5000 	 9.1279 	 11.6981 	 1.9066 	 37.3702 	 2.4534 	 48.9678 	 33.2013 	 11.5977 	 4.0000
  0.7000 	 1.6000 	 9.2168 	 11.6414 	 1.8071 	 40.5988 	 2.4031 	 50.7076 	 26.9438 	 10.1087 	 4.0000
  0.7000 	 1.7000 	 9.2951 	 11.5920 	 1.7183 	 44.3723 	 2.3605 	 52.3024 	 19.7960 	 7.9301 	 4.0000
  0.7000 	 1.8000 	 9.3648 	 11.5487 	 1.6385 	 49.6421 	 2.3243 	 53.7676 	 9.6947 	 4.1255 	 4.0000
  0.7000 	 1.0000 	 8.3641 	 12.3749 	 2.7322 	 23.8087 	 2.9789 	 36.9946 	 62.9170 	 13.1858 	 4.1000
  0.7000 	 1.1000 	 8.5628 	 12.2300 	 2.5213 	 26.3326 	 2.8364 	 39.7553 	 56.7309 	 13.4227 	 4.1000
  0.7000 	 1.2000 	 8.7283 	 12.1131 	 2.3439 	 28.8942 	 2.7231 	 42.2688 	 50.7627 	 13.3746 	 4.1000
  0.7000 	 1.3000 	 8.8683 	 12.0167 	 2.1923 	 31.5283 	 2.6315 	 44.5590 	 44.9218 	 13.0307 	 4.1000
  0.7000 	 1.4000 	 8.9884 	 11.9359 	 2.0611 	 34.2804 	 2.5565 	 46.6483 	 39.0980 	 12.3679 	 4.1000
  0.7000 	 1.5000 	 9.0924 	 11.8671 	 1.9462 	 37.2178 	 2.4943 	 48.5575 	 33.1383 	 11.3397 	 4.1000
  0.7000 	 1.6000 	 9.1835 	 11.8080 	 1.8446 	 40.4575 	 2.4423 	 50.3053 	 26.7877 	 9.8478 	 4.1000
  0.7000 	 1.7000 	 9.2638 	 11.7565 	 1.7540 	 44.2591 	 2.3983 	 51.9086 	 19.4835 	 7.6494 	 4.1000
  0.7000 	 1.8000 	 9.3352 	 11.7113 	 1.6726 	 49.6954 	 2.3608 	 53.3824 	 8.8387 	 3.6870 	 4.1000
  0.7000 	 1.0000 	 8.3108 	 12.5658 	 2.7885 	 23.6369 	 3.0347 	 36.5707 	 63.0775 	 12.9338 	 4.2000
  0.7000 	 1.1000 	 8.5143 	 12.4141 	 2.5729 	 26.1631 	 2.8879 	 39.3317 	 56.8623 	 13.1686 	 4.2000
  0.7000 	 1.2000 	 8.6839 	 12.2919 	 2.3916 	 28.7272 	 2.7710 	 41.8480 	 50.8584 	 13.1209 	 4.2000
  0.7000 	 1.3000 	 8.8273 	 12.1912 	 2.2368 	 31.3641 	 2.6766 	 44.1429 	 44.9745 	 12.7789 	 4.2000
  0.7000 	 1.4000 	 8.9503 	 12.1068 	 2.1028 	 34.1198 	 2.5992 	 46.2384 	 39.0981 	 12.1186 	 4.2000
  0.7000 	 1.5000 	 9.0569 	 12.0351 	 1.9855 	 37.0628 	 2.5350 	 48.1546 	 33.0717 	 11.0919 	 4.2000
  0.7000 	 1.6000 	 9.1502 	 11.9734 	 1.8819 	 40.3132 	 2.4813 	 49.9101 	 26.6279 	 9.5969 	 4.2000
  0.7000 	 1.7000 	 9.2324 	 11.9197 	 1.7895 	 44.1436 	 2.4358 	 51.5215 	 19.1638 	 7.3779 	 4.2000
  0.7000 	 1.8000 	 9.3056 	 11.8726 	 1.7064 	 49.7760 	 2.3971 	 53.0036 	 7.8889 	 3.2276 	 4.2000
  0.7000 	 1.0000 	 8.2576 	 12.7562 	 2.8447 	 23.4642 	 3.0904 	 36.1558 	 63.2313 	 12.6916 	 4.3000
  0.7000 	 1.1000 	 8.4659 	 12.5977 	 2.6244 	 25.9924 	 2.9393 	 38.9168 	 56.9876 	 12.9244 	 4.3000
  0.7000 	 1.2000 	 8.6395 	 12.4700 	 2.4393 	 28.5586 	 2.8189 	 41.4356 	 50.9488 	 12.8769 	 4.3000
  0.7000 	 1.3000 	 8.7863 	 12.3649 	 2.2812 	 31.1980 	 2.7216 	 43.7348 	 45.0226 	 12.5368 	 4.3000
  0.7000 	 1.4000 	 8.9123 	 12.2769 	 2.1444 	 33.9570 	 2.6418 	 45.8360 	 39.0945 	 11.8791 	 4.3000
  0.7000 	 1.5000 	 9.0214 	 12.2021 	 2.0248 	 36.9053 	 2.5756 	 47.7590 	 33.0017 	 10.8537 	 4.3000
  0.7000 	 1.6000 	 9.1168 	 12.1378 	 1.9190 	 40.1663 	 2.5201 	 49.5218 	 26.4647 	 9.3555 	 4.3000
  0.7000 	 1.7000 	 9.2011 	 12.0819 	 1.8248 	 44.0261 	 2.4732 	 51.1409 	 18.8370 	 7.1149 	 4.3000
  0.7000 	 1.8000 	 9.2760 	 12.0329 	 1.7401 	 49.8979 	 2.4332 	 52.6310 	 6.8078 	 2.7332 	 4.3000
  0.7000 	 1.0000 	 8.2043 	 12.9464 	 2.9007 	 23.2908 	 3.1461 	 35.7496 	 63.3786 	 12.4587 	 4.4000
  0.7000 	 1.1000 	 8.4174 	 12.7807 	 2.6758 	 25.8208 	 2.9906 	 38.5102 	 57.1072 	 12.6894 	 4.4000
  0.7000 	 1.2000 	 8.5951 	 12.6474 	 2.4868 	 28.3888 	 2.8667 	 41.0311 	 51.0343 	 12.6423 	 4.4000
  0.7000 	 1.3000 	 8.7454 	 12.5378 	 2.3254 	 31.0303 	 2.7664 	 43.3344 	 45.0666 	 12.3040 	 4.4000
  0.7000 	 1.4000 	 8.8742 	 12.4461 	 2.1859 	 33.7923 	 2.6842 	 45.4409 	 39.0874 	 11.6486 	 4.4000
  0.7000 	 1.5000 	 8.9858 	 12.3682 	 2.0638 	 36.7456 	 2.6160 	 47.3702 	 32.9289 	 10.6246 	 4.4000
  0.7000 	 1.6000 	 9.0835 	 12.3013 	 1.9560 	 40.0172 	 2.5588 	 49.1401 	 26.2985 	 9.1230 	 4.4000
  0.7000 	 1.7000 	 9.1697 	 12.2431 	 1.8599 	 43.9069 	 2.5104 	 50.7667 	 18.5034 	 6.8598 	 4.4000
  0.7000 	 1.8000 	 9.2464 	 12.1921 	 1.7737 	 50.0886 	 2.4692 	 52.2645 	 5.5204 	 2.1758 	 4.4000
  0.7000 	 1.0000 	 8.1510 	 13.1362 	 2.9567 	 23.1170 	 3.2016 	 35.3516 	 63.5198 	 12.2346 	 4.5000
  0.7000 	 1.1000 	 8.3690 	 12.9632 	 2.7271 	 25.6484 	 3.0418 	 38.1116 	 57.2214 	 12.4632 	 4.5000
  0.7000 	 1.2000 	 8.5506 	 12.8242 	 2.5342 	 28.2179 	 2.9143 	 40.6343 	 51.1152 	 12.4164 	 4.5000
  0.7000 	 1.3000 	 8.7044 	 12.7100 	 2.3696 	 30.8614 	 2.8112 	 42.9412 	 45.1067 	 12.0799 	 4.5000
  0.7000 	 1.4000 	 8.8361 	 12.6145 	 2.2273 	 33.6260 	 2.7265 	 45.0528 	 39.0772 	 11.4268 	 4.5000
  0.7000 	 1.5000 	 8.9503 	 12.5334 	 2.1028 	 36.5841 	 2.6563 	 46.9882 	 32.8535 	 10.4041 	 4.5000
  0.7000 	 1.6000 	 9.0502 	 12.4638 	 1.9929 	 39.8659 	 2.5974 	 48.7648 	 26.1296 	 8.8989 	 4.5000
  0.7000 	 1.7000 	 9.1384 	 12.4033 	 1.8950 	 43.7863 	 2.5475 	 50.3985 	 18.1631 	 6.6122 	 4.5000
  0.7000 	 1.8000 	 9.2168 	 12.3502 	 1.8071 	 50.4227 	 2.5050 	 51.9037 	 3.8258 	 1.4810 	 4.5000
