# d(e,e'p)n Central Kinematics Summary
# Beam Energy (Ei) = 10.549 GeV
# Q2 range         = 2-5 GeV (step_size=0.1)
# xbj range        = 0.5-1.6 (step_size=0.1)
# 
# Tensor Polarized Deuterium: d(e,e'p) kinematics :
# 
# Header Definitions: 
# Pr   : Central Missing Momentum [GeV/c] 
# xbj  : Bjorken x  
# kf   : e- final momentum [GeV/c] 
# th_e : e- scattering angle [deg] 
# Pf   : final proton momentum [GeV/c] 
# th_p : proton scattering angle [deg] 
# q    : 3-momentum transfer [GeV] 
# th_q : relative angle between q-vector and +z (lab)  [deg] 
# th_nq: relative angle between q-vector and recoil neutron [deg] 
# th_pq: relative angle between q-vector and knocked-out proton [deg] 
# Q2   : 4-Momentum Transfer [GeV^2]  
# 
#! Pr[f,0]/ 	  xbj[f,1]/ 	 kf[f,2]/ 	 th_e[f,3]/ 	 Pf[f,4]/ 	 th_p[f,5]/ 	 q[f,6]/ 	 th_q[f,7]/ 	 th_nq[f,8]/ 	 th_pq[f,9]/ 	 Q2[f,10]/
  0.2000 	 0.7000 	 8.2652 	 10.6433 	 3.0581 	 33.2768 	 2.8663 	 32.1793 	 162.9702 	 1.0975 	 3.0000
  0.3000 	 0.6000 	 7.8845 	 10.8979 	 3.4277 	 30.8594 	 3.1780 	 27.9733 	 144.8795 	 2.8861 	 3.0000
  0.4000 	 0.5000 	 7.3516 	 11.2873 	 3.9417 	 27.2216 	 3.6364 	 23.3098 	 137.7590 	 3.9117 	 3.0000
  0.4000 	 0.6000 	 7.8845 	 10.8979 	 3.3915 	 33.8785 	 3.1780 	 27.9733 	 119.2696 	 5.9052 	 3.0000
  0.5000 	 0.5000 	 7.3516 	 11.2873 	 3.8973 	 29.8047 	 3.6364 	 23.3098 	 118.1544 	 6.4949 	 3.0000
  0.2000 	 0.7000 	 8.1890 	 10.8701 	 3.1377 	 32.6028 	 2.9444 	 31.6341 	 164.6198 	 0.9687 	 3.1000
  0.3000 	 0.6000 	 7.7957 	 11.1418 	 3.5197 	 30.2095 	 3.2681 	 27.4481 	 145.5827 	 2.7614 	 3.1000
  0.4000 	 0.5000 	 7.2451 	 11.5588 	 4.0512 	 26.5825 	 3.7438 	 22.8156 	 138.2881 	 3.7669 	 3.1000
  0.4000 	 0.6000 	 7.7957 	 11.1418 	 3.4836 	 33.1731 	 3.2681 	 27.4481 	 119.6852 	 5.7250 	 3.1000
  0.5000 	 0.5000 	 7.2451 	 11.5588 	 4.0068 	 29.1091 	 3.7438 	 22.8156 	 118.5411 	 6.2935 	 3.1000
  0.2000 	 0.7000 	 8.1129 	 11.0964 	 3.2171 	 31.9455 	 3.0223 	 31.1061 	 166.3701 	 0.8394 	 3.2000
  0.3000 	 0.6000 	 7.7069 	 11.3859 	 3.6115 	 29.5844 	 3.3582 	 26.9401 	 146.2617 	 2.6443 	 3.2000
  0.4000 	 0.5000 	 7.1385 	 11.8321 	 4.1605 	 25.9690 	 3.8512 	 22.3377 	 138.7937 	 3.6313 	 3.2000
  0.4000 	 0.6000 	 7.7069 	 11.3859 	 3.5755 	 32.4953 	 3.3582 	 26.9401 	 120.0808 	 5.5553 	 3.2000
  0.5000 	 0.5000 	 7.1385 	 11.8321 	 4.1162 	 28.4418 	 3.8512 	 22.3377 	 118.9080 	 6.1041 	 3.2000
  0.5000 	 0.6000 	 7.7069 	 11.3859 	 3.5309 	 34.7540 	 3.3582 	 26.9401 	 106.2438 	 7.8139 	 3.2000
  0.2000 	 0.7000 	 8.0368 	 11.3224 	 3.2963 	 31.3007 	 3.1002 	 30.5943 	 168.2746 	 0.7065 	 3.3000
  0.3000 	 0.6000 	 7.6181 	 11.6305 	 3.7032 	 28.9824 	 3.4482 	 26.4481 	 146.9182 	 2.5344 	 3.3000
  0.4000 	 0.5000 	 7.0319 	 12.1073 	 4.2697 	 25.3791 	 3.9585 	 21.8751 	 139.2773 	 3.5041 	 3.3000
  0.4000 	 0.6000 	 7.6181 	 11.6305 	 3.6672 	 31.8431 	 3.4482 	 26.4481 	 120.4579 	 5.3950 	 3.3000
  0.5000 	 0.5000 	 7.0319 	 12.1073 	 4.2255 	 27.8006 	 3.9585 	 21.8751 	 119.2565 	 5.9255 	 3.3000
  0.5000 	 0.6000 	 7.6181 	 11.6305 	 3.6227 	 34.0498 	 3.4482 	 26.4481 	 106.5717 	 7.6018 	 3.3000
  0.2000 	 0.7000 	 7.9607 	 11.5483 	 3.3754 	 30.6617 	 3.1780 	 30.0976 	 170.4346 	 0.5642 	 3.4000
  0.3000 	 0.6000 	 7.5293 	 11.8757 	 3.7948 	 28.4020 	 3.5382 	 25.9711 	 147.5537 	 2.4309 	 3.4000
  0.3000 	 0.7000 	 7.9607 	 11.5483 	 3.3487 	 34.4313 	 3.1780 	 30.0976 	 122.4899 	 4.3337 	 3.4000
  0.4000 	 0.5000 	 6.9253 	 12.3846 	 4.3787 	 24.8111 	 4.0658 	 21.4267 	 139.7404 	 3.3845 	 3.4000
  0.4000 	 0.6000 	 7.5293 	 11.8757 	 3.7588 	 31.2147 	 3.5382 	 25.9711 	 120.8177 	 5.2436 	 3.4000
  0.5000 	 0.5000 	 6.9253 	 12.3846 	 4.3346 	 27.1837 	 4.0658 	 21.4267 	 119.5880 	 5.7570 	 3.4000
  0.5000 	 0.6000 	 7.5293 	 11.8757 	 3.7144 	 33.3720 	 3.5382 	 25.9711 	 106.8837 	 7.4009 	 3.4000
  0.2000 	 0.7000 	 7.8845 	 11.7741 	 3.4543 	 30.0139 	 3.2557 	 29.6152 	 173.0970 	 0.3987 	 3.5000
  0.3000 	 0.6000 	 7.4404 	 12.1216 	 3.8862 	 27.8416 	 3.6281 	 25.5082 	 148.1696 	 2.3334 	 3.5000
  0.3000 	 0.7000 	 7.8845 	 11.7741 	 3.4277 	 33.8318 	 3.2557 	 29.6152 	 122.8510 	 4.2166 	 3.5000
  0.4000 	 0.5000 	 6.8187 	 12.6644 	 4.4877 	 24.2634 	 4.1731 	 20.9916 	 140.1845 	 3.2718 	 3.5000
  0.4000 	 0.6000 	 7.4404 	 12.1216 	 3.8503 	 30.6084 	 3.6281 	 25.5082 	 121.1615 	 5.1002 	 3.5000
  0.5000 	 0.5000 	 6.8187 	 12.6644 	 4.4436 	 26.5892 	 4.1731 	 20.9916 	 119.9037 	 5.5976 	 3.5000
  0.5000 	 0.6000 	 7.4404 	 12.1216 	 3.8059 	 32.7186 	 3.6281 	 25.5082 	 107.1810 	 7.2104 	 3.5000
  0.2000 	 0.7000 	 7.8084 	 12.0000 	 3.5331 	 29.2826 	 3.3333 	 29.1464 	 177.5920 	 0.1363 	 3.6000
  0.3000 	 0.6000 	 7.3516 	 12.3686 	 3.9775 	 27.2999 	 3.7180 	 25.0586 	 148.7671 	 2.2413 	 3.6000
  0.3000 	 0.7000 	 7.8084 	 12.0000 	 3.5066 	 33.2517 	 3.3333 	 29.1464 	 123.1974 	 4.1054 	 3.6000
  0.4000 	 0.5000 	 6.7122 	 12.9468 	 4.5965 	 23.7346 	 4.2803 	 20.5689 	 140.6107 	 3.1657 	 3.6000
  0.4000 	 0.6000 	 7.3516 	 12.3686 	 3.9417 	 30.0229 	 3.7180 	 25.0586 	 121.4903 	 4.9643 	 3.6000
  0.5000 	 0.5000 	 6.7122 	 12.9468 	 4.5524 	 26.0156 	 4.2803 	 20.5689 	 120.2049 	 5.4467 	 3.6000
  0.5000 	 0.6000 	 7.3516 	 12.3686 	 3.8973 	 32.0880 	 3.7180 	 25.0586 	 107.4646 	 7.0295 	 3.6000
  0.3000 	 0.6000 	 7.2628 	 12.6166 	 4.0687 	 26.7758 	 3.8078 	 24.6214 	 149.3474 	 2.1543 	 3.7000
  0.3000 	 0.7000 	 7.7323 	 12.2261 	 3.5853 	 32.6899 	 3.4109 	 28.6903 	 123.5300 	 3.9997 	 3.7000
  0.4000 	 0.5000 	 6.6056 	 13.2321 	 4.7052 	 23.2234 	 4.3875 	 20.1580 	 141.0202 	 3.0654 	 3.7000
  0.4000 	 0.6000 	 7.2628 	 12.6166 	 4.0329 	 29.4567 	 3.8078 	 24.6214 	 121.8051 	 4.8352 	 3.7000
  0.4000 	 0.7000 	 7.7323 	 12.2261 	 3.5492 	 34.8734 	 3.4109 	 28.6903 	 107.1188 	 6.1831 	 3.7000
  0.5000 	 0.5000 	 6.6056 	 13.2321 	 4.6612 	 25.4615 	 4.3875 	 20.1580 	 120.4924 	 5.3036 	 3.7000
  0.5000 	 0.6000 	 7.2628 	 12.6166 	 3.9886 	 31.4789 	 3.8078 	 24.6214 	 107.7354 	 6.8574 	 3.7000
  0.2000 	 0.8000 	 8.0178 	 12.1674 	 3.3161 	 34.7348 	 3.1949 	 31.9338 	 125.8821 	 2.8010 	 3.8000
  0.3000 	 0.6000 	 7.1740 	 12.8659 	 4.1598 	 26.2681 	 3.8975 	 24.1961 	 149.9114 	 2.0720 	 3.8000
  0.3000 	 0.7000 	 7.6561 	 12.4526 	 3.6639 	 32.1454 	 3.4884 	 28.2462 	 123.8498 	 3.8992 	 3.8000
  0.4000 	 0.5000 	 6.4990 	 13.5205 	 4.8139 	 22.7286 	 4.4947 	 19.7579 	 141.4141 	 2.9706 	 3.8000
  0.4000 	 0.6000 	 7.1740 	 12.8659 	 4.1241 	 28.9087 	 3.8975 	 24.1961 	 122.1068 	 4.7126 	 3.8000
  0.4000 	 0.7000 	 7.6561 	 12.4526 	 3.6279 	 34.2864 	 3.4884 	 28.2462 	 107.3734 	 6.0402 	 3.8000
  0.5000 	 0.5000 	 6.4990 	 13.5205 	 4.7699 	 24.9256 	 4.4947 	 19.7579 	 120.7672 	 5.1677 	 3.8000
  0.5000 	 0.6000 	 7.1740 	 12.8659 	 4.0798 	 30.8897 	 3.8975 	 24.1961 	 107.9944 	 6.6937 	 3.8000
  0.2000 	 0.8000 	 7.9511 	 12.3788 	 3.3852 	 34.2217 	 3.2633 	 31.4891 	 126.2005 	 2.7326 	 3.9000
  0.3000 	 0.6000 	 7.0852 	 13.1166 	 4.2508 	 25.7758 	 3.9872 	 23.7818 	 150.4603 	 1.9940 	 3.9000
  0.3000 	 0.7000 	 7.5800 	 12.6795 	 3.7425 	 31.6170 	 3.5658 	 27.8136 	 124.1574 	 3.8034 	 3.9000
  0.4000 	 0.5000 	 6.3924 	 13.8124 	 4.9224 	 22.2491 	 4.6019 	 19.3682 	 141.7932 	 2.8809 	 3.9000
  0.4000 	 0.6000 	 7.0852 	 13.1166 	 4.2151 	 28.3777 	 3.9872 	 23.7818 	 122.3963 	 4.5959 	 3.9000
  0.4000 	 0.7000 	 7.5800 	 12.6795 	 3.7065 	 33.7173 	 3.5658 	 27.8136 	 107.6176 	 5.9037 	 3.9000
  0.5000 	 0.5000 	 6.3924 	 13.8124 	 4.8785 	 24.4066 	 4.6019 	 19.3682 	 121.0302 	 5.0385 	 3.9000
  0.5000 	 0.6000 	 7.0852 	 13.1166 	 4.1709 	 30.3193 	 3.9872 	 23.7818 	 108.2423 	 6.5375 	 3.9000
  0.2000 	 0.8000 	 7.8845 	 12.5902 	 3.4543 	 33.7226 	 3.3316 	 31.0553 	 126.5080 	 2.6674 	 4.0000
  0.3000 	 0.6000 	 6.9964 	 13.3689 	 4.3417 	 25.2981 	 4.0769 	 23.3780 	 150.9948 	 1.9200 	 4.0000
  0.3000 	 0.7000 	 7.5039 	 12.9069 	 3.8209 	 31.1039 	 3.6432 	 27.3918 	 124.4536 	 3.7121 	 4.0000
  0.4000 	 0.5000 	 6.2858 	 14.1079 	 5.0309 	 21.7839 	 4.7090 	 18.9881 	 142.1585 	 2.7958 	 4.0000
  0.4000 	 0.6000 	 6.9964 	 13.3689 	 4.3060 	 27.8627 	 4.0769 	 23.3780 	 122.6742 	 4.4847 	 4.0000
  0.4000 	 0.7000 	 7.5039 	 12.9069 	 3.7850 	 33.1651 	 3.6432 	 27.3918 	 107.8521 	 5.7733 	 4.0000
  0.5000 	 0.5000 	 6.2858 	 14.1079 	 4.9869 	 23.9035 	 4.7090 	 18.9881 	 121.2820 	 4.9155 	 4.0000
  0.5000 	 0.6000 	 6.9964 	 13.3689 	 4.2619 	 29.7666 	 4.0769 	 23.3780 	 108.4798 	 6.3885 	 4.0000
  0.2000 	 0.8000 	 7.8179 	 12.8017 	 3.5233 	 33.2367 	 3.3998 	 30.6317 	 126.8052 	 2.6050 	 4.1000
  0.3000 	 0.6000 	 6.9076 	 13.6229 	 4.4325 	 24.8339 	 4.1665 	 22.9842 	 151.5158 	 1.8497 	 4.1000
  0.3000 	 0.7000 	 7.4278 	 13.1350 	 3.8993 	 30.6052 	 3.7205 	 26.9804 	 124.7391 	 3.6249 	 4.1000
  0.4000 	 0.5000 	 6.1793 	 14.4074 	 5.1392 	 21.3322 	 4.8161 	 18.6171 	 142.5107 	 2.7151 	 4.1000
  0.4000 	 0.6000 	 6.9076 	 13.6229 	 4.3969 	 27.3628 	 4.1665 	 22.9842 	 122.9414 	 4.3786 	 4.1000
  0.4000 	 0.7000 	 7.4278 	 13.1350 	 3.8634 	 32.6289 	 3.7205 	 26.9804 	 108.0773 	 5.6485 	 4.1000
  0.5000 	 0.5000 	 6.1793 	 14.4074 	 5.0954 	 23.4153 	 4.8161 	 18.6171 	 121.5235 	 4.7982 	 4.1000
  0.5000 	 0.6000 	 6.9076 	 13.6229 	 4.3528 	 29.2304 	 4.1665 	 22.9842 	 108.7076 	 6.2462 	 4.1000
  0.5000 	 0.7000 	 7.4278 	 13.1350 	 3.8190 	 34.4369 	 3.7205 	 26.9804 	 97.6036 	 7.4566 	 4.1000
  0.1000 	 0.9000 	 8.0622 	 12.7589 	 3.2863 	 34.8969 	 3.2225 	 33.5408 	 128.9469 	 1.3561 	 4.2000
  0.2000 	 0.8000 	 7.7513 	 13.0133 	 3.5922 	 32.7634 	 3.4680 	 30.2180 	 127.0925 	 2.5454 	 4.2000
  0.3000 	 0.6000 	 6.8187 	 13.8788 	 4.5233 	 24.3826 	 4.2562 	 22.5997 	 152.0240 	 1.7829 	 4.2000
  0.3000 	 0.7000 	 7.3516 	 13.3639 	 3.9775 	 30.1202 	 3.7978 	 26.5786 	 125.0143 	 3.5416 	 4.2000
  0.3000 	 0.8000 	 7.7513 	 13.0133 	 3.5656 	 34.8413 	 3.4680 	 30.2180 	 106.6612 	 4.6233 	 4.2000
  0.4000 	 0.5000 	 6.0727 	 14.7111 	 5.2475 	 20.8930 	 4.9231 	 18.2546 	 142.8506 	 2.6384 	 4.2000
  0.4000 	 0.6000 	 6.8187 	 13.8788 	 4.4877 	 26.8771 	 4.2562 	 22.5997 	 123.1983 	 4.2774 	 4.2000
  0.4000 	 0.7000 	 7.3516 	 13.3639 	 3.9417 	 32.1077 	 3.7978 	 26.5786 	 108.2938 	 5.5291 	 4.2000
  0.5000 	 0.5000 	 6.0727 	 14.7111 	 5.2037 	 22.9410 	 4.9231 	 18.2546 	 121.7552 	 4.6864 	 4.2000
  0.5000 	 0.6000 	 6.8187 	 13.8788 	 4.4436 	 28.7098 	 4.2562 	 22.5997 	 108.9262 	 6.1101 	 4.2000
  0.5000 	 0.7000 	 7.3516 	 13.3639 	 3.8973 	 33.8810 	 3.7978 	 26.5786 	 97.8061 	 7.3023 	 4.2000
  0.1000 	 0.9000 	 8.0029 	 12.9584 	 3.3478 	 34.4550 	 3.2837 	 33.1292 	 129.2311 	 1.3258 	 4.3000
  0.2000 	 0.8000 	 7.6847 	 13.2252 	 3.6610 	 32.3020 	 3.5361 	 29.8136 	 127.3705 	 2.4883 	 4.3000
  0.3000 	 0.6000 	 6.7299 	 14.1367 	 4.6140 	 23.9435 	 4.3457 	 22.2242 	 152.5202 	 1.7193 	 4.3000
  0.3000 	 0.7000 	 7.2755 	 13.5937 	 4.0557 	 29.6481 	 3.8750 	 26.1862 	 125.2799 	 3.4619 	 4.3000
  0.3000 	 0.8000 	 7.6847 	 13.2252 	 3.6345 	 34.3446 	 3.5361 	 29.8136 	 106.8518 	 4.5310 	 4.3000
  0.4000 	 0.5000 	 5.9661 	 15.0193 	 5.3558 	 20.4657 	 5.0302 	 17.9002 	 143.1788 	 2.5655 	 4.3000
  0.4000 	 0.6000 	 6.7299 	 14.1367 	 4.5784 	 26.4048 	 4.3457 	 22.2242 	 123.4456 	 4.1806 	 4.3000
  0.4000 	 0.7000 	 7.2755 	 13.5937 	 4.0199 	 31.6008 	 3.8750 	 26.1862 	 108.5022 	 5.4146 	 4.3000
  0.5000 	 0.5000 	 5.9661 	 15.0193 	 5.3120 	 22.4798 	 5.0302 	 17.9002 	 121.9777 	 4.5796 	 4.3000
  0.5000 	 0.6000 	 6.7299 	 14.1367 	 4.5343 	 28.2039 	 4.3457 	 22.2242 	 109.1362 	 5.9798 	 4.3000
  0.5000 	 0.7000 	 7.2755 	 13.5937 	 3.9756 	 33.3406 	 3.8750 	 26.1862 	 98.0006 	 7.1544 	 4.3000
  0.1000 	 0.9000 	 7.9437 	 13.1579 	 3.4092 	 34.0232 	 3.3448 	 32.7265 	 129.5070 	 1.2968 	 4.4000
  0.2000 	 0.8000 	 7.6181 	 13.4374 	 3.7297 	 31.8519 	 3.6042 	 29.4182 	 127.6397 	 2.4337 	 4.4000
  0.3000 	 0.6000 	 6.6411 	 14.3968 	 4.7046 	 23.5157 	 4.4353 	 21.8571 	 153.0051 	 1.6587 	 4.4000
  0.3000 	 0.7000 	 7.1994 	 13.8245 	 4.1338 	 29.1882 	 3.9522 	 25.8025 	 125.5364 	 3.3856 	 4.4000
  0.3000 	 0.8000 	 7.6181 	 13.4374 	 3.7032 	 33.8606 	 3.6042 	 29.4182 	 107.0356 	 4.4424 	 4.4000
  0.4000 	 0.5000 	 5.8595 	 15.3323 	 5.4639 	 20.0494 	 5.1372 	 17.5534 	 143.4961 	 2.4960 	 4.4000
  0.4000 	 0.6000 	 6.6411 	 14.3968 	 4.6690 	 25.9450 	 4.4353 	 21.8571 	 123.6839 	 4.0880 	 4.4000
  0.4000 	 0.7000 	 7.1994 	 13.8245 	 4.0980 	 31.1073 	 3.9522 	 25.8025 	 108.7029 	 5.3048 	 4.4000
  0.5000 	 0.5000 	 5.8595 	 15.3323 	 5.4201 	 22.0309 	 5.1372 	 17.5534 	 122.1916 	 4.4775 	 4.4000
  0.5000 	 0.6000 	 6.6411 	 14.3968 	 4.6250 	 27.7120 	 4.4353 	 21.8571 	 109.3381 	 5.8549 	 4.4000
  0.5000 	 0.7000 	 7.1994 	 13.8245 	 4.0537 	 32.8150 	 3.9522 	 25.8025 	 98.1878 	 7.0125 	 4.4000
  0.1000 	 0.9000 	 7.8845 	 13.3573 	 3.4706 	 33.6011 	 3.4058 	 32.3322 	 129.7750 	 1.2689 	 4.5000
  0.2000 	 0.8000 	 7.5515 	 13.6501 	 3.7984 	 31.4126 	 3.6722 	 29.0313 	 127.9005 	 2.3812 	 4.5000
  0.3000 	 0.6000 	 6.5523 	 14.6593 	 4.7951 	 23.0988 	 4.5248 	 21.4979 	 153.4791 	 1.6008 	 4.5000
  0.3000 	 0.7000 	 7.1232 	 14.0564 	 4.2118 	 28.7398 	 4.0294 	 25.4273 	 125.7843 	 3.3125 	 4.5000
  0.3000 	 0.8000 	 7.5515 	 13.6501 	 3.7719 	 33.3885 	 3.6722 	 29.0313 	 107.2131 	 4.3571 	 4.5000
  0.4000 	 0.5000 	 5.7529 	 15.6505 	 5.5721 	 19.6435 	 5.2442 	 17.2138 	 143.8029 	 2.4298 	 4.5000
  0.4000 	 0.6000 	 6.5523 	 14.6593 	 4.7596 	 25.4972 	 4.5248 	 21.4979 	 123.9136 	 3.9993 	 4.5000
  0.4000 	 0.7000 	 7.1232 	 14.0564 	 4.1761 	 30.6267 	 4.0294 	 25.4273 	 108.8964 	 5.1993 	 4.5000
  0.5000 	 0.5000 	 5.7529 	 15.6505 	 5.5283 	 21.5935 	 5.2442 	 17.2138 	 122.3974 	 4.3797 	 4.5000
  0.5000 	 0.6000 	 6.5523 	 14.6593 	 4.7156 	 27.2331 	 4.5248 	 21.4979 	 109.5323 	 5.7351 	 4.5000
  0.5000 	 0.7000 	 7.1232 	 14.0564 	 4.1318 	 32.3035 	 4.0294 	 25.4273 	 98.3679 	 6.8761 	 4.5000
  0.1000 	 0.9000 	 7.8253 	 13.5568 	 3.5319 	 33.1881 	 3.4668 	 31.9460 	 130.0354 	 1.2422 	 4.6000
  0.2000 	 0.8000 	 7.4849 	 13.8632 	 3.8669 	 30.9835 	 3.7402 	 28.6526 	 128.1532 	 2.3309 	 4.6000
  0.3000 	 0.6000 	 6.4635 	 14.9242 	 4.8856 	 22.6921 	 4.6143 	 21.1464 	 153.9430 	 1.5456 	 4.6000
  0.3000 	 0.7000 	 7.0471 	 14.2895 	 4.2898 	 28.3025 	 4.1065 	 25.0601 	 126.0240 	 3.2424 	 4.6000
  0.3000 	 0.8000 	 7.4849 	 13.8632 	 3.8405 	 32.9277 	 3.7402 	 28.6526 	 107.3845 	 4.2752 	 4.6000
  0.4000 	 0.5000 	 5.6464 	 15.9742 	 5.6801 	 19.2474 	 5.3512 	 16.8808 	 144.0998 	 2.3666 	 4.6000
  0.4000 	 0.6000 	 6.4635 	 14.9242 	 4.8500 	 25.0607 	 4.6143 	 21.1464 	 124.1352 	 3.9143 	 4.6000
  0.4000 	 0.7000 	 7.0471 	 14.2895 	 4.2541 	 30.1582 	 4.1065 	 25.0601 	 109.0829 	 5.0980 	 4.6000
  0.4000 	 0.8000 	 7.4849 	 13.8632 	 3.8046 	 34.6515 	 3.7402 	 28.6526 	 96.2550 	 5.9989 	 4.6000
  0.5000 	 0.5000 	 5.6464 	 15.9742 	 5.6364 	 21.1670 	 5.3512 	 16.8808 	 122.5955 	 4.2861 	 4.6000
  0.5000 	 0.6000 	 6.4635 	 14.9242 	 4.8061 	 26.7666 	 4.6143 	 21.1464 	 109.7194 	 5.6202 	 4.6000
  0.5000 	 0.7000 	 7.0471 	 14.2895 	 4.2099 	 31.8052 	 4.1065 	 25.0601 	 98.5414 	 6.7450 	 4.6000
  0.1000 	 0.9000 	 7.7661 	 13.7565 	 3.5931 	 32.7840 	 3.5277 	 31.5675 	 130.2886 	 1.2164 	 4.7000
  0.2000 	 0.8000 	 7.4182 	 14.0769 	 3.9354 	 30.5642 	 3.8081 	 28.2816 	 128.3984 	 2.2826 	 4.7000
  0.2000 	 0.9000 	 7.7661 	 13.7565 	 3.5769 	 34.6947 	 3.5277 	 31.5675 	 102.6717 	 3.1272 	 4.7000
  0.3000 	 0.6000 	 6.3747 	 15.1918 	 4.9760 	 22.2950 	 4.7037 	 20.8021 	 154.3973 	 1.4929 	 4.7000
  0.3000 	 0.7000 	 6.9710 	 14.5239 	 4.3677 	 27.8757 	 4.1836 	 24.7006 	 126.2559 	 3.1751 	 4.7000
  0.3000 	 0.8000 	 7.4182 	 14.0769 	 3.9090 	 32.4779 	 3.8081 	 28.2816 	 107.5502 	 4.1962 	 4.7000
  0.4000 	 0.5000 	 5.5398 	 16.3037 	 5.7881 	 18.8606 	 5.4582 	 16.5543 	 144.3874 	 2.3063 	 4.7000
  0.4000 	 0.6000 	 6.3747 	 15.1918 	 4.9405 	 24.6349 	 4.7037 	 20.8021 	 124.3492 	 3.8328 	 4.7000
  0.4000 	 0.7000 	 6.9710 	 14.5239 	 4.3320 	 29.7012 	 4.1836 	 24.7006 	 109.2630 	 5.0006 	 4.7000
  0.4000 	 0.8000 	 7.4182 	 14.0769 	 3.8732 	 34.1723 	 3.8081 	 28.2816 	 96.4047 	 5.8906 	 4.7000
  0.5000 	 0.5000 	 5.5398 	 16.3037 	 5.7444 	 20.7507 	 5.4582 	 16.5543 	 122.7864 	 4.1964 	 4.7000
  0.5000 	 0.6000 	 6.3747 	 15.1918 	 4.8965 	 26.3119 	 4.7037 	 20.8021 	 109.8997 	 5.5098 	 4.7000
  0.5000 	 0.7000 	 6.9710 	 14.5239 	 4.2878 	 31.3195 	 4.1836 	 24.7006 	 98.7087 	 6.6189 	 4.7000
  0.1000 	 0.9000 	 7.7069 	 13.9564 	 3.6543 	 32.3882 	 3.5885 	 31.1965 	 130.5349 	 1.1917 	 4.8000
  0.2000 	 0.8000 	 7.3516 	 14.2913 	 4.0039 	 30.1543 	 3.8760 	 27.9181 	 128.6363 	 2.2362 	 4.8000
  0.2000 	 0.9000 	 7.7069 	 13.9564 	 3.6381 	 34.2696 	 3.5885 	 31.1965 	 102.7951 	 3.0731 	 4.8000
  0.3000 	 0.6000 	 6.2858 	 15.4623 	 5.0663 	 21.9071 	 4.7932 	 20.4647 	 154.8424 	 1.4424 	 4.8000
  0.3000 	 0.7000 	 6.8949 	 14.7597 	 4.4455 	 27.4588 	 4.2606 	 24.3483 	 126.4804 	 3.1105 	 4.8000
  0.3000 	 0.8000 	 7.3516 	 14.2913 	 3.9775 	 32.0383 	 3.8760 	 27.9181 	 107.7104 	 4.1202 	 4.8000
  0.4000 	 0.5000 	 5.4332 	 16.6394 	 5.8960 	 18.4823 	 5.5652 	 16.2337 	 144.6660 	 2.2486 	 4.8000
  0.4000 	 0.6000 	 6.2858 	 15.4623 	 5.0309 	 24.2192 	 4.7932 	 20.4647 	 124.5558 	 3.7545 	 4.8000
  0.4000 	 0.7000 	 6.8949 	 14.7597 	 4.4099 	 29.2552 	 4.2606 	 24.3483 	 109.4369 	 4.9069 	 4.8000
  0.4000 	 0.8000 	 7.3516 	 14.2913 	 3.9417 	 33.7044 	 3.8760 	 27.9181 	 96.5493 	 5.7862 	 4.8000
  0.5000 	 0.5000 	 5.4332 	 16.6394 	 5.8523 	 20.3440 	 5.5652 	 16.2337 	 122.9704 	 4.1103 	 4.8000
  0.5000 	 0.6000 	 6.2858 	 15.4623 	 4.9869 	 25.8683 	 4.7932 	 20.4647 	 110.0736 	 5.4036 	 4.8000
  0.5000 	 0.7000 	 6.8949 	 14.7597 	 4.3657 	 30.8457 	 4.2606 	 24.3483 	 98.8700 	 6.4974 	 4.8000
  0.1000 	 0.9000 	 7.6477 	 14.1565 	 3.7154 	 32.0006 	 3.6493 	 30.8327 	 130.7746 	 1.1679 	 4.9000
  0.2000 	 0.8000 	 7.2850 	 14.5064 	 4.0723 	 29.7532 	 3.9438 	 27.5618 	 128.8672 	 2.1915 	 4.9000
  0.2000 	 0.9000 	 7.6477 	 14.1565 	 3.6992 	 33.8535 	 3.6493 	 30.8327 	 102.9146 	 3.0208 	 4.9000
  0.3000 	 0.6000 	 6.1970 	 15.7358 	 5.1566 	 21.5279 	 4.8826 	 20.1337 	 155.2789 	 1.3941 	 4.9000
  0.3000 	 0.7000 	 6.8187 	 14.9970 	 4.5233 	 27.0513 	 4.3376 	 24.0030 	 126.6978 	 3.0483 	 4.9000
  0.3000 	 0.8000 	 7.2850 	 14.5064 	 4.0459 	 31.6087 	 3.9438 	 27.5618 	 107.8655 	 4.0469 	 4.9000
  0.4000 	 0.5000 	 5.3266 	 16.9816 	 6.0039 	 18.1123 	 5.6721 	 15.9188 	 144.9361 	 2.1935 	 4.9000
  0.4000 	 0.6000 	 6.1970 	 15.7358 	 5.1212 	 23.8130 	 4.8826 	 20.1337 	 124.7556 	 3.6793 	 4.9000
  0.4000 	 0.7000 	 6.8187 	 14.9970 	 4.4877 	 28.8195 	 4.3376 	 24.0030 	 109.6049 	 4.8166 	 4.9000
  0.4000 	 0.8000 	 7.2850 	 14.5064 	 4.0101 	 33.2473 	 3.9438 	 27.5618 	 96.6890 	 5.6855 	 4.9000
  0.5000 	 0.5000 	 5.3266 	 16.9816 	 5.9603 	 19.9464 	 5.6721 	 15.9188 	 123.1479 	 4.0276 	 4.9000
  0.5000 	 0.6000 	 6.1970 	 15.7358 	 5.0773 	 25.4352 	 4.8826 	 20.1337 	 110.2413 	 5.3015 	 4.9000
  0.5000 	 0.7000 	 6.8187 	 14.9970 	 4.4436 	 30.3834 	 4.3376 	 24.0030 	 99.0258 	 6.3804 	 4.9000
  0.5000 	 0.8000 	 7.2850 	 14.5064 	 3.9658 	 34.8034 	 3.9438 	 27.5618 	 88.8943 	 7.2417 	 4.9000
  0.1000 	 0.9000 	 7.5885 	 14.3569 	 3.7765 	 31.6206 	 3.7101 	 30.4757 	 131.0079 	 1.1450 	 5.0000
  0.2000 	 0.8000 	 7.2184 	 14.7223 	 4.1406 	 29.3607 	 4.0116 	 27.2122 	 129.0915 	 2.1485 	 5.0000
  0.2000 	 0.9000 	 7.5885 	 14.3569 	 3.7602 	 33.4460 	 3.7101 	 30.4757 	 103.0305 	 2.9703 	 5.0000
  0.3000 	 0.6000 	 6.1082 	 16.0125 	 5.2469 	 21.1569 	 4.9720 	 19.8090 	 155.7072 	 1.3479 	 5.0000
  0.3000 	 0.7000 	 6.7426 	 15.2359 	 4.6010 	 26.6529 	 4.4146 	 23.6643 	 126.9086 	 2.9885 	 5.0000
  0.3000 	 0.8000 	 7.2184 	 14.7223 	 4.1143 	 31.1884 	 4.0116 	 27.2122 	 108.0156 	 3.9762 	 5.0000
  0.4000 	 0.5000 	 5.2201 	 17.3309 	 6.1118 	 17.7499 	 5.7791 	 15.6092 	 145.1982 	 2.1407 	 5.0000
  0.4000 	 0.6000 	 6.1082 	 16.0125 	 5.2114 	 23.4160 	 4.9720 	 19.8090 	 124.9488 	 3.6070 	 5.0000
  0.4000 	 0.7000 	 6.7426 	 15.2359 	 4.5654 	 28.3939 	 4.4146 	 23.6643 	 109.7674 	 4.7295 	 5.0000
  0.4000 	 0.8000 	 7.2184 	 14.7223 	 4.0785 	 32.8006 	 4.0116 	 27.2122 	 96.8242 	 5.5883 	 5.0000
  0.5000 	 0.5000 	 5.2201 	 17.3309 	 6.0681 	 19.5573 	 5.7791 	 15.6092 	 123.3193 	 3.9481 	 5.0000
  0.5000 	 0.6000 	 6.1082 	 16.0125 	 5.1676 	 25.0121 	 4.9720 	 19.8090 	 110.4033 	 5.2031 	 5.0000
  0.5000 	 0.7000 	 6.7426 	 15.2359 	 4.5213 	 29.9319 	 4.4146 	 23.6643 	 99.1763 	 6.2675 	 5.0000
  0.5000 	 0.8000 	 7.2184 	 14.7223 	 4.0342 	 34.3308 	 4.0116 	 27.2122 	 89.0285 	 7.1185 	 5.0000
